" File: Users\LabUser\Documents\MonochromatorCal
"  SCOPE->  Wave:693.48nm  Pix:1050  Val:1555.200  Time:10000ms  Avg:1  Sm:1  Sg:0  Tc:off  SNAP  Xt:3  Ch:1  Xtrig  
 191.00  1.7448E+003
 191.50  1.6707E+003
 192.00  1.6530E+003
 192.50  1.5879E+003
 193.00  1.6261E+003
 193.50  1.6099E+003
 194.00  1.5086E+003
 194.50  1.4677E+003
 195.00  1.4287E+003
 195.50  1.3581E+003
 196.00  1.4171E+003
 196.50  1.7619E+003
 197.00  2.1475E+003
 197.50  2.1077E+003
 198.00  1.7264E+003
 198.50  1.4612E+003
 199.00  1.3476E+003
 199.50  1.4131E+003
 200.00  1.6552E+003
 200.50  1.7033E+003
 201.00  1.6017E+003
 201.50  1.6130E+003
 202.00  1.5818E+003
 202.50  1.5515E+003
 203.00  1.5241E+003
 203.50  1.4916E+003
 204.00  1.4742E+003
 204.50  1.4763E+003
 205.00  1.4987E+003
 205.50  1.5455E+003
 206.00  1.6039E+003
 206.50  1.6801E+003
 207.00  1.7468E+003
 207.50  1.8067E+003
 208.00  1.8439E+003
 208.50  1.8441E+003
 209.00  1.8126E+003
 209.50  1.7836E+003
 210.00  1.7389E+003
 210.50  1.6884E+003
 211.00  1.6985E+003
 211.50  1.7517E+003
 212.00  1.7806E+003
 212.50  1.7876E+003
 213.00  1.7953E+003
 213.50  1.7574E+003
 214.00  1.6671E+003
 214.50  1.6364E+003
 215.00  1.6423E+003
 215.50  1.6117E+003
 216.00  1.6251E+003
 216.50  1.6809E+003
 217.00  1.7354E+003
 217.50  1.7848E+003
 218.00  1.8301E+003
 218.50  1.8370E+003
 219.00  1.7860E+003
 219.50  1.6936E+003
 220.00  1.5971E+003
 220.50  1.5164E+003
 221.00  1.4626E+003
 221.50  1.4532E+003
 222.00  1.4671E+003
 222.50  1.4509E+003
 223.00  1.4168E+003
 223.50  1.3990E+003
 224.00  1.4085E+003
 224.50  1.4519E+003
 225.00  1.4873E+003
 225.50  1.4902E+003
 226.00  1.4844E+003
 226.50  1.4575E+003
 227.00  1.4306E+003
 227.50  1.4372E+003
 228.00  1.4818E+003
 228.50  1.5377E+003
 229.00  1.5710E+003
 229.50  1.5756E+003
 230.00  1.5934E+003
 230.50  1.6695E+003
 231.00  1.7725E+003
 231.50  1.8287E+003
 232.00  1.8432E+003
 232.50  1.8221E+003
 233.00  1.7430E+003
 233.50  1.6121E+003
 234.00  1.5283E+003
 234.50  1.5248E+003
 235.00  1.5437E+003
 235.50  1.5356E+003
 236.00  1.5119E+003
 236.50  1.5554E+003
 237.00  1.6567E+003
 237.50  1.7299E+003
 238.00  1.7629E+003
 238.50  1.7946E+003
 239.00  1.7945E+003
 239.50  1.7342E+003
 240.00  1.7144E+003
 240.50  1.8140E+003
 241.00  1.9298E+003
 241.50  1.9875E+003
 242.00  1.9936E+003
 242.50  1.9277E+003
 243.00  1.7942E+003
 243.50  1.6385E+003
 244.00  1.5034E+003
 244.50  1.4393E+003
 245.00  1.4332E+003
 245.50  1.4318E+003
 246.00  1.4387E+003
 246.50  1.5219E+003
 247.00  1.6436E+003
 247.50  1.7138E+003
 248.00  1.7234E+003
 248.50  1.7096E+003
 249.00  1.6579E+003
 249.50  1.5488E+003
 250.00  1.4442E+003
 250.50  1.3957E+003
 251.00  1.3745E+003
 251.50  1.3859E+003
 252.00  1.4105E+003
 252.50  1.4193E+003
 253.00  1.4456E+003
 253.50  1.4852E+003
 254.00  1.4801E+003
 254.50  1.4493E+003
 255.00  1.4326E+003
 255.50  1.4179E+003
 256.00  1.4025E+003
 256.50  1.4064E+003
 257.00  1.4541E+003
 257.50  1.5326E+003
 258.00  1.6106E+003
 258.50  1.6647E+003
 259.00  1.6705E+003
 259.50  1.6202E+003
 260.00  1.5357E+003
 260.50  1.4386E+003
 261.00  1.3517E+003
 261.50  1.3180E+003
 262.00  1.3879E+003
 262.50  1.5382E+003
 263.00  1.6969E+003
 263.50  1.7824E+003
 264.00  1.8029E+003
 264.50  1.7592E+003
 265.00  1.6339E+003
 265.50  1.4881E+003
 266.00  1.4702E+003
 266.50  1.5432E+003
 267.00  1.5841E+003
 267.50  1.5808E+003
 268.00  1.5556E+003
 268.50  1.4939E+003
 269.00  1.4320E+003
 269.50  1.4226E+003
 270.00  1.4530E+003
 270.50  1.5181E+003
 271.00  1.6136E+003
 271.50  1.6964E+003
 272.00  1.7575E+003
 272.50  1.7965E+003
 273.00  1.7896E+003
 273.50  1.7395E+003
 274.00  1.6624E+003
 274.50  1.5505E+003
 275.00  1.4532E+003
 275.50  1.4205E+003
 276.00  1.4020E+003
 276.50  1.4593E+003
 277.00  1.5564E+003
 277.50  1.6030E+003
 278.00  1.6198E+003
 278.50  1.6151E+003
 279.00  1.5321E+003
 279.50  1.3967E+003
 280.00  1.2944E+003
 280.50  1.2576E+003
 281.00  1.2690E+003
 281.50  1.3123E+003
 282.00  1.3727E+003
 282.50  1.4188E+003
 283.00  1.4394E+003
 283.50  1.4428E+003
 284.00  1.4232E+003
 284.50  1.3947E+003
 285.00  1.4028E+003
 285.50  1.4367E+003
 286.00  1.4336E+003
 286.50  1.4293E+003
 287.00  1.4901E+003
 287.50  1.5385E+003
 288.00  1.5191E+003
 288.50  1.5125E+003
 289.00  1.5400E+003
 289.50  1.5624E+003
 290.00  1.6467E+003
 290.50  1.7555E+003
 291.00  1.8394E+003
 291.50  1.9140E+003
 292.00  1.8920E+003
 292.50  1.7382E+003
 293.00  1.5877E+003
 293.50  1.5264E+003
 294.00  1.5026E+003
 294.50  1.5174E+003
 295.00  1.5947E+003
 295.50  1.6847E+003
 296.00  1.7027E+003
 296.50  1.6665E+003
 297.00  1.6157E+003
 297.50  1.5420E+003
 298.00  1.4646E+003
 298.50  1.4202E+003
 299.00  1.3946E+003
 299.50  1.3828E+003
 300.00  1.4190E+003
 300.50  1.4793E+003
 301.00  1.5136E+003
 301.50  1.5452E+003
 302.00  1.5896E+003
 302.50  1.5948E+003
 303.00  1.5601E+003
 303.50  1.5498E+003
 304.00  1.5921E+003
 304.50  1.6209E+003
 305.00  1.6059E+003
 305.50  1.6151E+003
 306.00  1.6291E+003
 306.50  1.5657E+003
 307.00  1.5394E+003
 307.50  1.5866E+003
 308.00  1.5860E+003
 308.50  1.5664E+003
 309.00  1.5855E+003
 309.50  1.6524E+003
 310.00  1.7346E+003
 310.50  1.7900E+003
 311.00  1.8323E+003
 311.50  1.8645E+003
 312.00  1.8230E+003
 312.50  1.7536E+003
 313.00  1.7339E+003
 313.50  1.7350E+003
 314.00  1.7192E+003
 314.50  1.6891E+003
 315.00  1.6582E+003
 315.50  1.6635E+003
 316.00  1.6959E+003
 316.50  1.6992E+003
 317.00  1.6816E+003
 317.50  1.6637E+003
 318.00  1.6069E+003
 318.50  1.5186E+003
 319.00  1.4714E+003
 319.50  1.4843E+003
 320.00  1.5503E+003
 320.50  1.6942E+003
 321.00  1.8305E+003
 321.50  1.8841E+003
 322.00  1.9048E+003
 322.50  1.8695E+003
 323.00  1.7078E+003
 323.50  1.5500E+003
 324.00  1.5333E+003
 324.50  1.5295E+003
 325.00  1.4991E+003
 325.50  1.5333E+003
 326.00  1.6208E+003
 326.50  1.6418E+003
 327.00  1.6172E+003
 327.50  1.6258E+003
 328.00  1.5962E+003
 328.50  1.5048E+003
 329.00  1.4403E+003
 329.50  1.4270E+003
 330.00  1.4211E+003
 330.50  1.4172E+003
 331.00  1.4061E+003
 331.50  1.3754E+003
 332.00  1.3763E+003
 332.50  1.3977E+003
 333.00  1.4304E+003
 333.50  1.5012E+003
 334.00  1.6024E+003
 334.50  1.6703E+003
 335.00  1.7125E+003
 335.50  1.7627E+003
 336.00  1.7816E+003
 336.50  1.7426E+003
 337.00  1.6931E+003
 337.50  1.6473E+003
 338.00  1.5697E+003
 338.50  1.4848E+003
 339.00  1.4360E+003
 339.50  1.4165E+003
 340.00  1.4200E+003
 340.50  1.4659E+003
 341.00  1.5341E+003
 341.50  1.5778E+003
 342.00  1.6230E+003
 342.50  1.6856E+003
 343.00  1.8244E+003
 343.50  2.0838E+003
 344.00  2.3061E+003
 344.50  2.3751E+003
 345.00  2.3565E+003
 345.50  2.2380E+003
 346.00  1.9636E+003
 346.50  1.7085E+003
 347.00  1.6227E+003
 347.50  1.6209E+003
 348.00  1.6245E+003
 348.50  1.6320E+003
 349.00  1.6532E+003
 349.50  1.6459E+003
 350.00  1.5895E+003
 350.50  1.5464E+003
 351.00  1.5815E+003
 351.50  1.6608E+003
 352.00  1.7344E+003
 352.50  1.7793E+003
 353.00  1.7910E+003
 353.50  1.7650E+003
 354.00  1.7267E+003
 354.50  1.6878E+003
 355.00  1.6602E+003
 355.50  1.6594E+003
 356.00  1.6827E+003
 356.50  1.6851E+003
 357.00  1.6611E+003
 357.50  1.6301E+003
 358.00  1.5994E+003
 358.50  1.5643E+003
 359.00  1.5373E+003
 359.50  1.5337E+003
 360.00  1.5786E+003
 360.50  1.6333E+003
 361.00  1.6529E+003
 361.50  1.6770E+003
 362.00  1.7113E+003
 362.50  1.7159E+003
 363.00  1.7011E+003
 363.50  1.6436E+003
 364.00  1.5597E+003
 364.50  1.5207E+003
 365.00  1.4985E+003
 365.50  1.4670E+003
 366.00  1.4923E+003
 366.50  1.5651E+003
 367.00  1.5880E+003
 367.50  1.5968E+003
 368.00  1.6258E+003
 368.50  1.5918E+003
 369.00  1.5129E+003
 369.50  1.5348E+003
 370.00  1.6752E+003
 370.50  1.7938E+003
 371.00  1.8669E+003
 371.50  1.9051E+003
 372.00  1.8408E+003
 372.50  1.6859E+003
 373.00  1.5531E+003
 373.50  1.5000E+003
 374.00  1.4726E+003
 374.50  1.4569E+003
 375.00  1.5198E+003
 375.50  1.6029E+003
 376.00  1.6116E+003
 376.50  1.6548E+003
 377.00  1.7310E+003
 377.50  1.6766E+003
 378.00  1.6666E+003
 378.50  1.7358E+003
 379.00  1.7780E+003
 379.50  1.8185E+003
 380.00  1.9029E+003
 380.50  1.9569E+003
 381.00  2.1255E+003
 381.50  2.2863E+003
 382.00  2.2901E+003
 382.50  2.2485E+003
 383.00  2.1885E+003
 383.50  2.0177E+003
 384.00  1.7979E+003
 384.50  1.7045E+003
 385.00  1.6514E+003
 385.50  1.5829E+003
 386.00  1.5344E+003
 386.50  1.5280E+003
 387.00  1.5611E+003
 387.50  1.5990E+003
 388.00  1.6059E+003
 388.50  1.5685E+003
 389.00  1.5249E+003
 389.50  1.4600E+003
 390.00  1.3998E+003
 390.50  1.3680E+003
 391.00  1.3451E+003
 391.50  1.3402E+003
 392.00  1.3426E+003
 392.50  1.3658E+003
 393.00  1.3991E+003
 393.50  1.4266E+003
 394.00  1.4306E+003
 394.50  1.4159E+003
 395.00  1.3923E+003
 395.50  1.3669E+003
 396.00  1.3428E+003
 396.50  1.3353E+003
 397.00  1.3459E+003
 397.50  1.3620E+003
 398.00  1.4129E+003
 398.50  1.4821E+003
 399.00  1.5465E+003
 399.50  1.5960E+003
 400.00  1.5989E+003
 400.50  1.5473E+003
 401.00  1.5286E+003
 401.50  1.5873E+003
 402.00  1.6452E+003
 402.50  1.6814E+003
 403.00  1.6987E+003
 403.50  1.6560E+003
 404.00  1.5373E+003
 404.50  1.4318E+003
 405.00  1.4234E+003
 405.50  1.4648E+003
 406.00  1.4958E+003
 406.50  1.5199E+003
 407.00  1.5319E+003
 407.50  1.5155E+003
 408.00  1.5199E+003
 408.50  1.5687E+003
 409.00  1.6369E+003
 409.50  1.7223E+003
 410.00  1.7738E+003
 410.50  1.7573E+003
 411.00  1.7439E+003
 411.50  1.7553E+003
 412.00  1.7315E+003
 412.50  1.7035E+003
 413.00  1.6893E+003
 413.50  1.6338E+003
 414.00  1.5539E+003
 414.50  1.5525E+003
 415.00  1.6238E+003
 415.50  1.7010E+003
 416.00  1.7845E+003
 416.50  1.8377E+003
 417.00  1.7812E+003
 417.50  1.6546E+003
 418.00  1.5553E+003
 418.50  1.4602E+003
 419.00  1.3875E+003
 419.50  1.3744E+003
 420.00  1.3846E+003
 420.50  1.3789E+003
 421.00  1.3891E+003
 421.50  1.4576E+003
 422.00  1.5383E+003
 422.50  1.5823E+003
 423.00  1.6095E+003
 423.50  1.6137E+003
 424.00  1.5741E+003
 424.50  1.5244E+003
 425.00  1.4917E+003
 425.50  1.4678E+003
 426.00  1.4656E+003
 426.50  1.4471E+003
 427.00  1.4007E+003
 427.50  1.3845E+003
 428.00  1.3874E+003
 428.50  1.3787E+003
 429.00  1.3779E+003
 429.50  1.4244E+003
 430.00  1.4744E+003
 430.50  1.5089E+003
 431.00  1.5491E+003
 431.50  1.5659E+003
 432.00  1.5566E+003
 432.50  1.5976E+003
 433.00  1.6596E+003
 433.50  1.7512E+003
 434.00  1.8706E+003
 434.50  1.9065E+003
 435.00  1.8542E+003
 435.50  1.7772E+003
 436.00  1.6631E+003
 436.50  1.5538E+003
 437.00  1.5052E+003
 437.50  1.4847E+003
 438.00  1.4653E+003
 438.50  1.4464E+003
 439.00  1.4265E+003
 439.50  1.3955E+003
 440.00  1.3816E+003
 440.50  1.4093E+003
 441.00  1.4685E+003
 441.50  1.5426E+003
 442.00  1.6173E+003
 442.50  1.6681E+003
 443.00  1.6667E+003
 443.50  1.6251E+003
 444.00  1.6275E+003
 444.50  1.7083E+003
 445.00  1.7714E+003
 445.50  1.7963E+003
 446.00  1.7988E+003
 446.50  1.7760E+003
 447.00  1.7230E+003
 447.50  1.6603E+003
 448.00  1.6367E+003
 448.50  1.6832E+003
 449.00  1.7532E+003
 449.50  1.8149E+003
 450.00  1.8733E+003
 450.50  1.9410E+003
 451.00  1.9384E+003
 451.50  1.8216E+003
 452.00  1.7062E+003
 452.50  1.6311E+003
 453.00  1.5382E+003
 453.50  1.4762E+003
 454.00  1.4628E+003
 454.50  1.4312E+003
 455.00  1.4383E+003
 455.50  1.5256E+003
 456.00  1.5942E+003
 456.50  1.6509E+003
 457.00  1.7544E+003
 457.50  1.8079E+003
 458.00  1.7799E+003
 458.50  1.7743E+003
 459.00  1.7479E+003
 459.50  1.6505E+003
 460.00  1.5813E+003
 460.50  1.5680E+003
 461.00  1.6931E+003
 461.50  1.9221E+003
 462.00  2.1599E+003
 462.50  2.3814E+003
 463.00  2.4774E+003
 463.50  2.3317E+003
 464.00  2.1037E+003
 464.50  2.0435E+003
 465.00  2.0247E+003
 465.50  1.9792E+003
 466.00  1.9778E+003
 466.50  1.9564E+003
 467.00  1.7781E+003
 467.50  1.5786E+003
 468.00  1.5031E+003
 468.50  1.4936E+003
 469.00  1.4776E+003
 469.50  1.4849E+003
 470.00  1.5382E+003
 470.50  1.5947E+003
 471.00  1.6261E+003
 471.50  1.6486E+003
 472.00  1.6377E+003
 472.50  1.5681E+003
 473.00  1.4840E+003
 473.50  1.4759E+003
 474.00  1.5230E+003
 474.50  1.5595E+003
 475.00  1.5888E+003
 475.50  1.5808E+003
 476.00  1.5539E+003
 476.50  1.5333E+003
 477.00  1.5544E+003
 477.50  1.6192E+003
 478.00  1.6710E+003
 478.50  1.6469E+003
 479.00  1.5793E+003
 479.50  1.5026E+003
 480.00  1.4768E+003
 480.50  1.5527E+003
 481.00  1.6540E+003
 481.50  1.7371E+003
 482.00  1.7866E+003
 482.50  1.7204E+003
 483.00  1.5952E+003
 483.50  1.5541E+003
 484.00  1.5876E+003
 484.50  1.6859E+003
 485.00  1.7920E+003
 485.50  1.8096E+003
 486.00  1.7759E+003
 486.50  1.7195E+003
 487.00  1.6885E+003
 487.50  1.6932E+003
 488.00  1.7017E+003
 488.50  1.6855E+003
 489.00  1.6288E+003
 489.50  1.5161E+003
 490.00  1.4097E+003
 490.50  1.3458E+003
 491.00  1.3142E+003
 491.50  1.3116E+003
 492.00  1.3461E+003
 492.50  1.3966E+003
 493.00  1.4684E+003
 493.50  1.5436E+003
 494.00  1.5682E+003
 494.50  1.6216E+003
 495.00  1.7789E+003
 495.50  1.8650E+003
 496.00  1.8699E+003
 496.50  1.9244E+003
 497.00  1.9092E+003
 497.50  1.8168E+003
 498.00  1.7692E+003
 498.50  1.7484E+003
 499.00  1.6876E+003
 499.50  1.6116E+003
 500.00  1.5546E+003
 500.50  1.5363E+003
 501.00  1.5644E+003
 501.50  1.5973E+003
 502.00  1.6139E+003
 502.50  1.6033E+003
 503.00  1.5388E+003
 503.50  1.4441E+003
 504.00  1.4025E+003
 504.50  1.4141E+003
 505.00  1.4451E+003
 505.50  1.5921E+003
 506.00  1.7807E+003
 506.50  1.8663E+003
 507.00  1.9107E+003
 507.50  1.9296E+003
 508.00  1.8441E+003
 508.50  1.7370E+003
 509.00  1.6730E+003
 509.50  1.5995E+003
 510.00  1.5197E+003
 510.50  1.4849E+003
 511.00  1.4785E+003
 511.50  1.4575E+003
 512.00  1.4673E+003
 512.50  1.4761E+003
 513.00  1.4365E+003
 513.50  1.4510E+003
 514.00  1.5156E+003
 514.50  1.5670E+003
 515.00  1.5981E+003
 515.50  1.5977E+003
 516.00  1.5468E+003
 516.50  1.4893E+003
 517.00  1.4840E+003
 517.50  1.5449E+003
 518.00  1.6278E+003
 518.50  1.6863E+003
 519.00  1.7083E+003
 519.50  1.6849E+003
 520.00  1.6285E+003
 520.50  1.5875E+003
 521.00  1.5575E+003
 521.50  1.5722E+003
 522.00  1.6819E+003
 522.50  1.7977E+003
 523.00  1.8467E+003
 523.50  1.8656E+003
 524.00  1.8175E+003
 524.50  1.6791E+003
 525.00  1.5565E+003
 525.50  1.5143E+003
 526.00  1.4783E+003
 526.50  1.4638E+003
 527.00  1.7435E+003
 527.50  2.1811E+003
 528.00  2.4160E+003
 528.50  2.5428E+003
 529.00  2.6008E+003
 529.50  2.3234E+003
 530.00  1.9769E+003
 530.50  1.8502E+003
 531.00  1.8132E+003
 531.50  1.7824E+003
 532.00  1.7337E+003
 532.50  1.6692E+003
 533.00  1.5906E+003
 533.50  1.5119E+003
 534.00  1.4558E+003
 534.50  1.4654E+003
 535.00  1.5092E+003
 535.50  1.5112E+003
 536.00  1.4785E+003
 536.50  1.4296E+003
 537.00  1.3842E+003
 537.50  1.3746E+003
 538.00  1.4019E+003
 538.50  1.4417E+003
 539.00  1.4473E+003
 539.50  1.4276E+003
 540.00  1.4330E+003
 540.50  1.4701E+003
 541.00  1.5461E+003
 541.50  1.6174E+003
 542.00  1.6194E+003
 542.50  1.5798E+003
 543.00  1.5183E+003
 543.50  1.4698E+003
 544.00  1.4808E+003
 544.50  1.5761E+003
 545.00  1.6714E+003
 545.50  1.7006E+003
 546.00  1.6944E+003
 546.50  1.6595E+003
 547.00  1.5909E+003
 547.50  1.5613E+003
 548.00  1.5718E+003
 548.50  1.5851E+003
 549.00  1.5893E+003
 549.50  1.5843E+003
 550.00  1.5648E+003
 550.50  1.5296E+003
 551.00  1.5480E+003
 551.50  1.5991E+003
 552.00  1.6440E+003
 552.50  1.6741E+003
 553.00  1.6681E+003
 553.50  1.6068E+003
 554.00  1.5250E+003
 554.50  1.4290E+003
 555.00  1.3983E+003
 555.50  1.4416E+003
 556.00  1.5304E+003
 556.50  1.6200E+003
 557.00  1.6928E+003
 557.50  1.6917E+003
 558.00  1.6652E+003
 558.50  1.7194E+003
 559.00  1.8503E+003
 559.50  1.9782E+003
 560.00  2.0140E+003
 560.50  1.9112E+003
 561.00  1.7752E+003
 561.50  1.6607E+003
 562.00  1.5587E+003
 562.50  1.5597E+003
 563.00  1.5921E+003
 563.50  1.5659E+003
 564.00  1.5147E+003
 564.50  1.5040E+003
 565.00  1.4924E+003
 565.50  1.4426E+003
 566.00  1.3830E+003
 566.50  1.3740E+003
 567.00  1.3920E+003
 567.50  1.4700E+003
 568.00  1.5937E+003
 568.50  1.7012E+003
 569.00  1.7771E+003
 569.50  1.7897E+003
 570.00  1.7167E+003
 570.50  1.6335E+003
 571.00  1.5578E+003
 571.50  1.4826E+003
 572.00  1.4567E+003
 572.50  1.4739E+003
 573.00  1.5408E+003
 573.50  1.5955E+003
 574.00  1.6323E+003
 574.50  1.6855E+003
 575.00  1.7071E+003
 575.50  1.6656E+003
 576.00  1.6085E+003
 576.50  1.5376E+003
 577.00  1.4552E+003
 577.50  1.4406E+003
 578.00  1.4988E+003
 578.50  1.5258E+003
 579.00  1.5677E+003
 579.50  1.6200E+003
 580.00  1.5993E+003
 580.50  1.6196E+003
 581.00  1.6787E+003
 581.50  1.6794E+003
 582.00  1.6534E+003
 582.50  1.5921E+003
 583.00  1.4802E+003
 583.50  1.4088E+003
 584.00  1.3828E+003
 584.50  1.3876E+003
 585.00  1.4165E+003
 585.50  1.4743E+003
 586.00  1.4928E+003
 586.50  1.4862E+003
 587.00  1.5205E+003
 587.50  1.5645E+003
 588.00  1.5881E+003
 588.50  1.6289E+003
 589.00  1.7192E+003
 589.50  1.8161E+003
 590.00  1.8517E+003
 590.50  1.8549E+003
 591.00  1.8325E+003
 591.50  1.7175E+003
 592.00  1.6546E+003
 592.50  1.7189E+003
 593.00  1.7478E+003
 593.50  1.7278E+003
 594.00  1.7018E+003
 594.50  1.5809E+003
 595.00  1.4641E+003
 595.50  1.4200E+003
 596.00  1.4042E+003
 596.50  1.3894E+003
 597.00  1.3893E+003
 597.50  1.4402E+003
 598.00  1.4951E+003
 598.50  1.5245E+003
 599.00  1.5655E+003
 599.50  1.6395E+003
 600.00  1.6972E+003
 600.50  1.7624E+003
 601.00  1.8035E+003
 601.50  1.7547E+003
 602.00  1.6500E+003
 602.50  1.5326E+003
 603.00  1.4262E+003
 603.50  1.3993E+003
 604.00  1.3975E+003
 604.50  1.3997E+003
 605.00  1.4081E+003
 605.50  1.4079E+003
 606.00  1.3953E+003
 606.50  1.3821E+003
 607.00  1.3985E+003
 607.50  1.4316E+003
 608.00  1.4412E+003
 608.50  1.4472E+003
 609.00  1.4477E+003
 609.50  1.4343E+003
 610.00  1.4662E+003
 610.50  1.5416E+003
 611.00  1.6295E+003
 611.50  1.6994E+003
 612.00  1.7200E+003
 612.50  1.6949E+003
 613.00  1.6259E+003
 613.50  1.5779E+003
 614.00  1.5697E+003
 614.50  1.6023E+003
 615.00  1.7093E+003
 615.50  1.8046E+003
 616.00  1.8456E+003
 616.50  1.8883E+003
 617.00  1.8749E+003
 617.50  1.7756E+003
 618.00  1.6801E+003
 618.50  1.6094E+003
 619.00  1.5175E+003
 619.50  1.4462E+003
 620.00  1.4823E+003
 620.50  1.5925E+003
 621.00  1.6885E+003
 621.50  1.8034E+003
 622.00  1.8771E+003
 622.50  1.8462E+003
 623.00  1.7781E+003
 623.50  1.7064E+003
 624.00  1.6284E+003
 624.50  1.5867E+003
 625.00  1.5671E+003
 625.50  1.5442E+003
 626.00  1.5341E+003
 626.50  1.5361E+003
 627.00  1.5104E+003
 627.50  1.4918E+003
 628.00  1.5099E+003
 628.50  1.5249E+003
 629.00  1.5075E+003
 629.50  1.4942E+003
 630.00  1.5240E+003
 630.50  1.7595E+003
 631.00  1.9972E+003
 631.50  2.0921E+003
 632.00  2.1000E+003
 632.50  1.9108E+003
 633.00  1.6008E+003
 633.50  1.4759E+003
 634.00  1.4788E+003
 634.50  1.5556E+003
 635.00  1.6276E+003
 635.50  1.6803E+003
 636.00  1.7304E+003
 636.50  1.7249E+003
 637.00  1.6749E+003
 637.50  1.6155E+003
 638.00  1.5696E+003
 638.50  1.5557E+003
 639.00  1.6140E+003
 639.50  1.8051E+003
 640.00  1.9105E+003
 640.50  1.8972E+003
 641.00  1.9221E+003
 641.50  1.8453E+003
 642.00  1.7141E+003
 642.50  1.7140E+003
 643.00  1.7808E+003
 643.50  1.7946E+003
 644.00  1.7690E+003
 644.50  1.7520E+003
 645.00  1.6869E+003
 645.50  1.5864E+003
 646.00  1.5405E+003
 646.50  1.6653E+003
 647.00  1.8350E+003
 647.50  1.9430E+003
 648.00  2.0750E+003
 648.50  2.0892E+003
 649.00  1.9185E+003
 649.50  1.7815E+003
 650.00  1.7081E+003
 650.50  1.7763E+003
 651.00  1.8980E+003
 651.50  2.0088E+003
 652.00  2.0938E+003
 652.50  1.9894E+003
 653.00  1.7677E+003
 653.50  1.6842E+003
 654.00  1.6673E+003
 654.50  1.6736E+003
 655.00  1.6922E+003
 655.50  1.6870E+003
 656.00  1.6493E+003
 656.50  1.5757E+003
 657.00  1.5081E+003
 657.50  1.4606E+003
 658.00  1.4062E+003
 658.50  1.3816E+003
 659.00  1.3897E+003
 659.50  1.3963E+003
 660.00  1.4041E+003
 660.50  1.4757E+003
 661.00  1.6196E+003
 661.50  1.7546E+003
 662.00  1.8812E+003
 662.50  1.9307E+003
 663.00  1.8377E+003
 663.50  1.7491E+003
 664.00  1.7047E+003
 664.50  1.7035E+003
 665.00  1.7876E+003
 665.50  1.8513E+003
 666.00  1.8608E+003
 666.50  1.8180E+003
 667.00  1.7251E+003
 667.50  1.6259E+003
 668.00  1.5573E+003
 668.50  1.5926E+003
 669.00  1.6497E+003
 669.50  1.6697E+003
 670.00  1.7172E+003
 670.50  1.7929E+003
 671.00  1.8563E+003
 671.50  1.8992E+003
 672.00  1.9349E+003
 672.50  1.9975E+003
 673.00  2.0588E+003
 673.50  2.0964E+003
 674.00  2.1195E+003
 674.50  2.0548E+003
 675.00  1.9357E+003
 675.50  1.8650E+003
 676.00  1.8762E+003
 676.50  1.9501E+003
 677.00  1.9464E+003
 677.50  1.8405E+003
 678.00  1.7438E+003
 678.50  1.6137E+003
 679.00  1.5150E+003
 679.50  1.4971E+003
 680.00  1.5135E+003
 680.50  1.5455E+003
 681.00  1.5779E+003
 681.50  1.5948E+003
 682.00  1.5976E+003
 682.50  1.5836E+003
 683.00  1.6118E+003
 683.50  1.6956E+003
 684.00  1.7936E+003
 684.50  1.8828E+003
 685.00  1.9384E+003
 685.50  1.9045E+003
 686.00  1.7985E+003
 686.50  1.6785E+003
 687.00  1.5811E+003
 687.50  1.5466E+003
 688.00  1.5802E+003
 688.50  1.6315E+003
 689.00  1.6630E+003
 689.50  1.6421E+003
 690.00  1.6187E+003
 690.50  1.6288E+003
 691.00  1.6125E+003
 691.50  1.5918E+003
 692.00  1.5611E+003
 692.50  1.5095E+003
 693.00  1.4959E+003
 693.50  1.5587E+003
 694.00  1.6400E+003
 694.50  1.7340E+003
 695.00  1.8423E+003
 695.50  1.8557E+003
 696.00  1.7895E+003
 696.50  1.7054E+003
 697.00  1.6426E+003
 697.50  1.6400E+003
 698.00  1.6833E+003
 698.50  1.7501E+003
 699.00  1.7560E+003
 699.50  1.6820E+003
 700.00  1.6368E+003
 700.50  1.6324E+003
 701.00  1.6206E+003
 701.50  1.6359E+003
 702.00  1.6900E+003
 702.50  1.6813E+003
 703.00  1.6409E+003
 703.50  1.6103E+003
 704.00  1.5736E+003
 704.50  1.6192E+003
 705.00  1.7478E+003
 705.50  1.8789E+003
 706.00  1.9169E+003
 706.50  1.9037E+003
 707.00  1.8944E+003
 707.50  1.8719E+003
 708.00  1.8895E+003
 708.50  1.9357E+003
 709.00  1.9123E+003
 709.50  1.8582E+003
 710.00  1.8811E+003
 710.50  1.9280E+003
 711.00  1.9744E+003
 711.50  1.9997E+003
 712.00  1.9250E+003
 712.50  1.8294E+003
 713.00  1.7411E+003
 713.50  1.6787E+003
 714.00  1.6906E+003
 714.50  1.7815E+003
 715.00  1.8753E+003
 715.50  2.0417E+003
 716.00  2.1857E+003
 716.50  2.1728E+003
 717.00  2.0724E+003
 717.50  1.9059E+003
 718.00  1.7650E+003
 718.50  1.7441E+003
 719.00  1.8215E+003
 719.50  1.8760E+003
 720.00  1.8691E+003
 720.50  1.8618E+003
 721.00  1.8456E+003
 721.50  1.8411E+003
 722.00  1.8631E+003
 722.50  1.8619E+003
 723.00  1.7953E+003
 723.50  1.7463E+003
 724.00  1.7628E+003
 724.50  1.7600E+003
 725.00  1.7724E+003
 725.50  1.8259E+003
 726.00  1.8007E+003
 726.50  1.7734E+003
 727.00  1.7733E+003
 727.50  1.7545E+003
 728.00  1.7349E+003
 728.50  1.7626E+003
 729.00  1.8110E+003
 729.50  1.8257E+003
 730.00  1.8211E+003
 730.50  1.7918E+003
 731.00  1.7287E+003
 731.50  1.7626E+003
 732.00  1.8236E+003
 732.50  1.8685E+003
 733.00  1.8838E+003
 733.50  1.8331E+003
 734.00  1.8075E+003
 734.50  1.8284E+003
 735.00  1.8015E+003
 735.50  1.7731E+003
 736.00  1.7181E+003
 736.50  1.6446E+003
 737.00  1.7075E+003
 737.50  1.8271E+003
 738.00  1.9437E+003
 738.50  1.9825E+003
 739.00  1.8917E+003
 739.50  1.7397E+003
 740.00  1.6073E+003
 740.50  1.5279E+003
 741.00  1.5496E+003
 741.50  1.6799E+003
 742.00  1.8062E+003
 742.50  1.8886E+003
 743.00  1.9664E+003
 743.50  1.9873E+003
 744.00  1.9063E+003
 744.50  1.7958E+003
 745.00  1.6902E+003
 745.50  1.5970E+003
 746.00  1.5914E+003
 746.50  1.6605E+003
 747.00  1.7397E+003
 747.50  1.8067E+003
 748.00  1.8266E+003
 748.50  1.7845E+003
 749.00  1.7662E+003
 749.50  1.7944E+003
 750.00  1.8050E+003
 750.50  1.8380E+003
 751.00  1.8737E+003
 751.50  1.8281E+003
 752.00  1.7753E+003
 752.50  1.7719E+003
 753.00  1.7346E+003
 753.50  1.7142E+003
 754.00  1.7824E+003
 754.50  1.8119E+003
 755.00  1.8125E+003
 755.50  1.8678E+003
 756.00  1.9949E+003
 756.50  2.0570E+003
 757.00  2.0522E+003
 757.50  2.0012E+003
 758.00  1.8442E+003
 758.50  1.7613E+003
 759.00  1.7724E+003
 759.50  1.7894E+003
 760.00  1.7496E+003
 760.50  1.6747E+003
 761.00  1.6219E+003
 761.50  1.5990E+003
 762.00  1.5998E+003
 762.50  1.5925E+003
 763.00  1.6237E+003
 763.50  1.6909E+003
 764.00  1.7623E+003
 764.50  1.7970E+003
 765.00  1.8033E+003
 765.50  1.8006E+003
 766.00  1.7612E+003
 766.50  1.7233E+003
 767.00  1.6813E+003
 767.50  1.6417E+003
 768.00  1.6376E+003
 768.50  1.6530E+003
 769.00  1.6790E+003
 769.50  1.6522E+003
 770.00  1.5966E+003
 770.50  1.5416E+003
 771.00  1.5048E+003
 771.50  1.4965E+003
 772.00  1.4889E+003
 772.50  1.5434E+003
 773.00  1.6455E+003
 773.50  1.6977E+003
 774.00  1.7356E+003
 774.50  1.7751E+003
 775.00  1.8117E+003
 775.50  1.8124E+003
 776.00  1.8441E+003
 776.50  1.8185E+003
 777.00  1.6815E+003
 777.50  1.6161E+003
 778.00  1.5949E+003
 778.50  1.6067E+003
 779.00  1.6546E+003
 779.50  1.6608E+003
 780.00  1.6512E+003
 780.50  1.6223E+003
 781.00  1.5710E+003
 781.50  1.5768E+003
 782.00  1.6032E+003
 782.50  1.5942E+003
 783.00  1.6276E+003
 783.50  1.6646E+003
 784.00  1.6752E+003
 784.50  1.6759E+003
 785.00  1.6574E+003
 785.50  1.6264E+003
 786.00  1.5794E+003
 786.50  1.5772E+003
 787.00  1.5921E+003
 787.50  1.5620E+003
 788.00  1.5404E+003
 788.50  1.5220E+003
 789.00  1.5257E+003
 789.50  1.5601E+003
 790.00  1.6097E+003
 790.50  1.6956E+003
 791.00  1.7587E+003
 791.50  1.8074E+003
 792.00  1.8315E+003
 792.50  1.7576E+003
 793.00  1.6470E+003
 793.50  1.5566E+003
 794.00  1.5800E+003
 794.50  1.7004E+003
 795.00  1.8260E+003
 795.50  1.8805E+003
 796.00  1.8031E+003
 796.50  1.6843E+003
 797.00  1.5932E+003
 797.50  1.5579E+003
 798.00  1.5787E+003
 798.50  1.5555E+003
 799.00  1.5358E+003
 799.50  1.5771E+003
 800.00  1.6563E+003
 800.50  1.7623E+003
 801.00  1.8124E+003
 801.50  1.7932E+003
 802.00  1.7208E+003
 802.50  1.6072E+003
 803.00  1.5620E+003
 803.50  1.5714E+003
 804.00  1.5732E+003
 804.50  1.5986E+003
 805.00  1.6176E+003
 805.50  1.6156E+003
 806.00  1.6248E+003
 806.50  1.6781E+003
 807.00  1.7169E+003
 807.50  1.7010E+003
 808.00  1.6868E+003
 808.50  1.7045E+003
 809.00  1.8488E+003
 809.50  2.0232E+003
 810.00  2.1052E+003
 810.50  2.0361E+003
 811.00  1.8303E+003
 811.50  1.6525E+003
 812.00  1.5735E+003
 812.50  1.5721E+003
 813.00  1.6115E+003
 813.50  1.6248E+003
 814.00  1.6534E+003
 814.50  1.7092E+003
 815.00  1.7157E+003
 815.50  1.6813E+003
 816.00  1.5920E+003
 816.50  1.4917E+003
 817.00  1.4435E+003
 817.50  1.5269E+003
 818.00  1.7308E+003
 818.50  1.9271E+003
 819.00  2.0664E+003
 819.50  2.0420E+003
 820.00  1.8916E+003
 820.50  1.7566E+003
 821.00  1.6804E+003
 821.50  1.6380E+003
 822.00  1.6337E+003
 822.50  1.6037E+003
 823.00  1.6131E+003
 823.50  1.6970E+003
 824.00  1.7303E+003
 824.50  1.7247E+003
 825.00  1.6486E+003
 825.50  1.5259E+003
 826.00  1.4452E+003
 826.50  1.4460E+003
 827.00  1.5159E+003
 827.50  1.5888E+003
 828.00  1.6092E+003
 828.50  1.5489E+003
 829.00  1.4410E+003
 829.50  1.3833E+003
 830.00  1.4517E+003
 830.50  1.5878E+003
 831.00  1.6559E+003
 831.50  1.6409E+003
 832.00  1.5669E+003
 832.50  1.5111E+003
 833.00  1.5056E+003
 833.50  1.5188E+003
 834.00  1.6272E+003
 834.50  1.7725E+003
 835.00  1.8360E+003
 835.50  1.8552E+003
 836.00  1.7683E+003
 836.50  1.6136E+003
 837.00  1.5406E+003
 837.50  1.5436E+003
 838.00  1.5460E+003
 838.50  1.5267E+003
 839.00  1.5363E+003
 839.50  1.5240E+003
 840.00  1.4646E+003
 840.50  1.4086E+003
 841.00  1.3653E+003
 841.50  1.4036E+003
 842.00  1.4609E+003
 842.50  1.5464E+003
 843.00  1.6242E+003
 843.50  1.6642E+003
 844.00  1.6991E+003
 844.50  1.6647E+003
 845.00  1.6364E+003
 845.50  1.6054E+003
 846.00  1.6369E+003
 846.50  1.7220E+003
 847.00  1.7312E+003
 847.50  1.6716E+003
 848.00  1.5884E+003
 848.50  1.5232E+003
 849.00  1.5543E+003
 849.50  1.6261E+003
 850.00  1.6292E+003
 850.50  1.5859E+003
 851.00  1.4927E+003
 851.50  1.4566E+003
 852.00  1.5399E+003
 852.50  1.6240E+003
 853.00  1.9701E+003
 853.50  2.3589E+003
 854.00  2.3954E+003
 854.50  2.3741E+003
 855.00  2.0463E+003
 855.50  1.6700E+003
 856.00  1.5653E+003
 856.50  1.5350E+003
 857.00  1.5470E+003
 857.50  1.5921E+003
 858.00  1.6299E+003
 858.50  1.6083E+003
 859.00  1.5469E+003
 859.50  1.4478E+003
 860.00  1.3633E+003
 860.50  1.4359E+003
 861.00  1.5026E+003
 861.50  1.5503E+003
 862.00  1.5682E+003
 862.50  1.4917E+003
 863.00  1.4137E+003
 863.50  1.3801E+003
 864.00  1.4277E+003
 864.50  1.5480E+003
 865.00  1.6280E+003
 865.50  1.6389E+003
 866.00  1.5906E+003
 866.50  1.5160E+003
 867.00  1.5339E+003
 867.50  1.6156E+003
 868.00  1.6412E+003
 868.50  1.6063E+003
 869.00  1.5392E+003
 869.50  1.4676E+003
 870.00  1.4344E+003
 870.50  1.4286E+003
 871.00  1.4925E+003
 871.50  1.5872E+003
 872.00  1.6842E+003
 872.50  1.6912E+003
 873.00  1.6057E+003
 873.50  1.6072E+003
 874.00  1.7758E+003
 874.50  1.8419E+003
 875.00  1.9255E+003
 875.50  1.8560E+003
 876.00  1.6449E+003
 876.50  1.6040E+003
 877.00  1.5636E+003
 877.50  1.5469E+003
 878.00  1.5294E+003
 878.50  1.4815E+003
 879.00  1.4373E+003
 879.50  1.3788E+003
 880.00  1.3496E+003
 880.50  1.3921E+003
 881.00  1.4049E+003
 881.50  1.4161E+003
 882.00  1.4043E+003
 882.50  1.3592E+003
 883.00  1.3906E+003
 883.50  1.4853E+003
 884.00  1.5563E+003
 884.50  1.5892E+003
 885.00  1.6147E+003
 885.50  1.6088E+003
 886.00  1.6518E+003
 886.50  1.6892E+003
 887.00  1.7382E+003
 887.50  1.7774E+003
 888.00  1.7742E+003
 888.50  1.7455E+003
 889.00  1.6226E+003
 889.50  1.5386E+003
 890.00  1.5383E+003
 890.50  1.6107E+003
 891.00  1.7328E+003
 891.50  1.7866E+003
 892.00  1.7371E+003
 892.50  1.7369E+003
 893.00  1.7008E+003
 893.50  1.6970E+003
 894.00  1.7476E+003
 894.50  1.7369E+003
 895.00  1.7538E+003
 895.50  1.7496E+003
 896.00  1.7391E+003
 896.50  1.6845E+003
 897.00  1.5759E+003
 897.50  1.4992E+003
 898.00  1.4400E+003
 898.50  1.4010E+003
 899.00  1.4038E+003
 899.50  1.3941E+003
 900.00  1.3929E+003
 900.50  1.4581E+003
 901.00  1.5422E+003
 901.50  1.6367E+003
 902.00  1.6817E+003
 902.50  1.7385E+003
 903.00  1.7723E+003
 903.50  1.8033E+003
 904.00  1.8794E+003
 904.50  1.8971E+003
 905.00  1.8721E+003
 905.50  1.7632E+003
 906.00  1.5879E+003
 906.50  1.4354E+003
 907.00  1.3797E+003
 907.50  1.4385E+003
 908.00  1.5761E+003
 908.50  1.7130E+003
 909.00  1.7655E+003
 909.50  1.7859E+003
 910.00  1.7429E+003
 910.50  1.6657E+003
 911.00  1.6147E+003
 911.50  1.5571E+003
 912.00  1.5191E+003
 912.50  1.4895E+003
 913.00  1.4233E+003
 913.50  1.3793E+003
 914.00  1.4448E+003
 914.50  1.5504E+003
 915.00  1.6344E+003
 915.50  1.7053E+003
 916.00  1.7338E+003
 916.50  1.7368E+003
 917.00  1.7079E+003
 917.50  1.7102E+003
 918.00  1.7209E+003
 918.50  2.6778E+003
 919.00  3.7916E+003
 919.50  4.1273E+003
 920.00  4.0698E+003
 920.50  2.9614E+003
 921.00  2.0791E+003
 921.50  1.8259E+003
 922.00  1.7244E+003
 922.50  1.6512E+003
 923.00  1.6368E+003
 923.50  1.6031E+003
 924.00  1.6082E+003
 924.50  1.6314E+003
 925.00  1.6641E+003
 925.50  1.6204E+003
 926.00  1.5436E+003
 926.50  1.4772E+003
 927.00  1.4424E+003
 927.50  1.4939E+003
 928.00  1.5502E+003
 928.50  1.6840E+003
 929.00  1.7073E+003
 929.50  1.7308E+003
 930.00  1.7301E+003
 930.50  1.6829E+003
 931.00  1.6558E+003
 931.50  1.6756E+003
 932.00  1.6827E+003
 932.50  1.6961E+003
 933.00  1.6606E+003
 933.50  1.5673E+003
 934.00  1.5297E+003
 934.50  1.5377E+003
 935.00  1.5909E+003
 935.50  1.6489E+003
 936.00  1.6413E+003
 936.50  1.5767E+003
 937.00  1.4989E+003
 937.50  1.4902E+003
 938.00  1.6266E+003
 938.50  1.9397E+003
 939.00  2.0388E+003
 939.50  2.0015E+003
 940.00  1.7708E+003
 940.50  1.5734E+003
 941.00  1.6010E+003
 941.50  1.7043E+003
 942.00  1.7098E+003
 942.50  1.6629E+003
 943.00  1.5582E+003
 943.50  1.4262E+003
 944.00  1.4528E+003
 944.50  1.5188E+003
 945.00  1.5793E+003
 945.50  1.6830E+003
 946.00  1.7004E+003
 946.50  1.6671E+003
 947.00  1.5985E+003
 947.50  1.5375E+003
 948.00  1.5826E+003
 948.50  1.6587E+003
 949.00  1.7274E+003
 949.50  1.7273E+003
 950.00  1.6102E+003
 950.50  1.5270E+003
 951.00  1.4833E+003
 951.50  1.5283E+003
 952.00  1.6386E+003
 952.50  1.6746E+003
 953.00  1.6060E+003
 953.50  1.4609E+003
 954.00  1.3629E+003
 954.50  1.4796E+003
 955.00  1.6920E+003
 955.50  1.7859E+003
 956.00  1.8381E+003
 956.50  1.7830E+003
 957.00  1.9041E+003
 957.50  2.0630E+003
 958.00  1.9913E+003
 958.50  1.7861E+003
 959.00  1.4851E+003
 959.50  1.3603E+003
 960.00  1.4004E+003
 960.50  1.4308E+003
 961.00  1.5046E+003
 961.50  1.5181E+003
 962.00  1.5009E+003
 962.50  1.4656E+003
 963.00  1.4148E+003
 963.50  1.4678E+003
 964.00  1.5113E+003
 964.50  1.5160E+003
 965.00  1.4913E+003
 965.50  1.3999E+003
 966.00  1.3586E+003
 966.50  1.3308E+003
 967.00  1.3512E+003
 967.50  1.5154E+003
 968.00  1.6974E+003
 968.50  1.7588E+003
 969.00  1.7221E+003
 969.50  1.6808E+003
 970.00  1.6665E+003
 970.50  1.7341E+003
 971.00  1.7473E+003
 971.50  1.7185E+003
 972.00  1.6580E+003
 972.50  1.5842E+003
 973.00  1.4933E+003
 973.50  1.4844E+003
 974.00  1.5801E+003
 974.50  1.6231E+003
 975.00  1.6676E+003
 975.50  1.6215E+003
 976.00  1.6236E+003
 976.50  1.6517E+003
 977.00  1.6067E+003
 977.50  1.5490E+003
 978.00  1.4807E+003
 978.50  1.5973E+003
 979.00  1.7357E+003
 979.50  1.8869E+003
 980.00  1.8864E+003
 980.50  1.8473E+003
 981.00  1.8085E+003
 981.50  1.7007E+003
 982.00  1.6153E+003
 982.50  1.5385E+003
 983.00  1.5097E+003
 983.50  1.5500E+003
 984.00  1.5778E+003
 984.50  1.5982E+003
 985.00  1.6388E+003
 985.50  1.6386E+003
 986.00  1.5806E+003
 986.50  1.5560E+003
 987.00  1.5965E+003
 987.50  1.7127E+003
 988.00  1.9700E+003
 988.50  1.9568E+003
 989.00  1.9215E+003
 989.50  1.7457E+003
 990.00  1.7438E+003
 990.50  1.8334E+003
 991.00  1.8588E+003
 991.50  1.8489E+003
 992.00  1.7034E+003
 992.50  1.6756E+003
 993.00  1.5936E+003
 993.50  1.4756E+003
 994.00  1.3924E+003
 994.50  1.3641E+003
 995.00  1.3537E+003
 995.50  1.3872E+003
 996.00  1.4657E+003
 996.50  1.5462E+003
 997.00  1.6292E+003
 997.50  1.7060E+003
 998.00  1.8077E+003
 998.50  1.9288E+003
 999.00  1.9462E+003
 999.50  1.9040E+003
1000.00  1.9018E+003
1000.50  1.9807E+003
1001.00  1.9663E+003
1001.50  1.8997E+003
1002.00  1.6964E+003
1002.50  1.5849E+003
1003.00  1.5866E+003
1003.50  1.6000E+003
1004.00  1.6286E+003
1004.50  1.6060E+003
1005.00  1.6623E+003
1005.50  1.6969E+003
1006.00  1.7620E+003
1006.50  1.8044E+003
1007.00  1.8533E+003
1007.50  1.8128E+003
1008.00  1.7111E+003
1008.50  1.5195E+003
1009.00  1.4846E+003
1009.50  1.6320E+003
1010.00  1.7655E+003
1010.50  1.8572E+003
1011.00  1.7407E+003
1011.50  1.7325E+003
1012.00  1.6846E+003
1012.50  1.6259E+003
1013.00  1.4991E+003
1013.50  1.3911E+003
1014.00  1.3942E+003
1014.50  1.4575E+003
1015.00  1.4923E+003
1015.50  1.4944E+003
1016.00  1.5321E+003
1016.50  1.6063E+003
1017.00  1.6095E+003
1017.50  1.6478E+003
1018.00  1.6692E+003
1018.50  1.6732E+003
1019.00  1.6283E+003
1019.50  1.5807E+003
1020.00  1.6403E+003
1020.50  1.7478E+003
1021.00  1.8743E+003
1021.50  1.8156E+003
1022.00  1.7911E+003
1022.50  1.7576E+003
1023.00  1.6458E+003
1023.50  1.5216E+003
1024.00  1.4157E+003
1024.50  1.4215E+003
1025.00  1.4755E+003
1025.50  1.5240E+003
1026.00  1.5384E+003
1026.50  1.6405E+003
1027.00  1.8159E+003
1027.50  1.8420E+003
1028.00  1.8498E+003
1028.50  1.7910E+003
1029.00  1.6998E+003
1029.50  1.7583E+003
1030.00  1.7292E+003
1030.50  1.7381E+003
1031.00  1.7072E+003
1031.50  1.5858E+003
1032.00  1.5694E+003
1032.50  1.5292E+003
1033.00  1.5242E+003
1033.50  1.6334E+003
1034.00  1.7363E+003
1034.50  1.9517E+003
1035.00  2.0302E+003
1035.50  1.9944E+003
1036.00  1.9378E+003
1036.50  1.8304E+003
1037.00  1.6933E+003
1037.50  1.6111E+003
1038.00  1.5123E+003
1038.50  1.5398E+003
1039.00  1.5355E+003
1039.50  1.4777E+003
1040.00  1.4361E+003
1040.50  1.4110E+003
1041.00  1.3783E+003
1041.50  1.3623E+003
1042.00  1.4079E+003
1042.50  1.5657E+003
1043.00  1.8078E+003
1043.50  1.9227E+003
1044.00  1.9527E+003
1044.50  1.8986E+003
1045.00  1.7188E+003
1045.50  1.5716E+003
1046.00  1.3913E+003
1046.50  1.3085E+003
1047.00  1.3603E+003
1047.50  1.4904E+003
1048.00  1.5978E+003
1048.50  1.8114E+003
1049.00  1.9271E+003
1049.50  1.9757E+003
1050.00  1.8775E+003
1050.50  1.6721E+003
1051.00  1.5373E+003
1051.50  1.4448E+003
1052.00  1.4037E+003
1052.50  1.3561E+003
1053.00  1.4134E+003
1053.50  1.6303E+003
1054.00  1.7700E+003
1054.50  1.8121E+003
1055.00  1.6704E+003
1055.50  1.5068E+003
1056.00  1.4762E+003
1056.50  1.4425E+003
1057.00  1.4229E+003
1057.50  1.4790E+003
1058.00  1.5848E+003
1058.50  1.6552E+003
1059.00  1.6450E+003
1059.50  1.5920E+003
1060.00  1.5454E+003
1060.50  1.5707E+003
1061.00  1.6302E+003
1061.50  1.6608E+003
1062.00  1.7493E+003
1062.50  1.8069E+003
1063.00  1.8271E+003
1063.50  1.7753E+003
1064.00  1.6127E+003
1064.50  1.4770E+003
1065.00  1.4935E+003
1065.50  1.5625E+003
1066.00  1.6339E+003
1066.50  1.6018E+003
1067.00  1.5586E+003
1067.50  1.5431E+003
1068.00  1.5853E+003
1068.50  1.6369E+003
1069.00  1.6368E+003
1069.50  1.6115E+003
1070.00  1.6067E+003
1070.50  1.5491E+003
1071.00  1.5409E+003
1071.50  1.5545E+003
1072.00  1.6448E+003
1072.50  1.2803E+003
