" File: Users\LabUser\Documents\MonochromatorCal
"  SCOPE->  Wave:693.48nm  Pix:1050  Val:1621.400  Time:10000ms  Avg:1  Sm:1  Sg:0  Tc:off  SNAP  Xt:3  Ch:1  Xtrig  
 191.00  1.7714E+003
 191.50  1.6738E+003
 192.00  1.6281E+003
 192.50  1.5731E+003
 193.00  1.6182E+003
 193.50  1.5695E+003
 194.00  1.4793E+003
 194.50  1.4689E+003
 195.00  1.4400E+003
 195.50  1.3781E+003
 196.00  1.4498E+003
 196.50  1.7961E+003
 197.00  2.1831E+003
 197.50  2.1553E+003
 198.00  1.7770E+003
 198.50  1.5199E+003
 199.00  1.4173E+003
 199.50  1.4791E+003
 200.00  1.7249E+003
 200.50  1.7716E+003
 201.00  1.6745E+003
 201.50  1.6322E+003
 202.00  1.5896E+003
 202.50  1.5564E+003
 203.00  1.5303E+003
 203.50  1.5161E+003
 204.00  1.5170E+003
 204.50  1.5207E+003
 205.00  1.5340E+003
 205.50  1.5694E+003
 206.00  1.6078E+003
 206.50  1.6636E+003
 207.00  1.7293E+003
 207.50  1.7973E+003
 208.00  1.8436E+003
 208.50  1.8527E+003
 209.00  1.8318E+003
 209.50  1.8033E+003
 210.00  1.7503E+003
 210.50  1.6880E+003
 211.00  1.6873E+003
 211.50  1.7323E+003
 212.00  1.7579E+003
 212.50  1.7668E+003
 213.00  1.7803E+003
 213.50  1.7537E+003
 214.00  1.6730E+003
 214.50  1.6341E+003
 215.00  1.6237E+003
 215.50  1.5853E+003
 216.00  1.5910E+003
 216.50  1.6369E+003
 217.00  1.6831E+003
 217.50  1.7302E+003
 218.00  1.7705E+003
 218.50  1.7722E+003
 219.00  1.7244E+003
 219.50  1.6420E+003
 220.00  1.5543E+003
 220.50  1.4805E+003
 221.00  1.4318E+003
 221.50  1.4204E+003
 222.00  1.4312E+003
 222.50  1.4298E+003
 223.00  1.4200E+003
 223.50  1.4263E+003
 224.00  1.4590E+003
 224.50  1.5165E+003
 225.00  1.5468E+003
 225.50  1.5427E+003
 226.00  1.5292E+003
 226.50  1.4984E+003
 227.00  1.4703E+003
 227.50  1.4787E+003
 228.00  1.5235E+003
 228.50  1.5749E+003
 229.00  1.6041E+003
 229.50  1.6105E+003
 230.00  1.6380E+003
 230.50  1.7266E+003
 231.00  1.8328E+003
 231.50  1.8891E+003
 232.00  1.9040E+003
 232.50  1.8772E+003
 233.00  1.7792E+003
 233.50  1.6359E+003
 234.00  1.5490E+003
 234.50  1.5371E+003
 235.00  1.5418E+003
 235.50  1.5239E+003
 236.00  1.5007E+003
 236.50  1.5429E+003
 237.00  1.6371E+003
 237.50  1.7077E+003
 238.00  1.7450E+003
 238.50  1.7790E+003
 239.00  1.7823E+003
 239.50  1.7366E+003
 240.00  1.7334E+003
 240.50  1.8376E+003
 241.00  1.9507E+003
 241.50  2.0130E+003
 242.00  2.0173E+003
 242.50  1.9371E+003
 243.00  1.8065E+003
 243.50  1.6627E+003
 244.00  1.5325E+003
 244.50  1.4681E+003
 245.00  1.4688E+003
 245.50  1.4694E+003
 246.00  1.4767E+003
 246.50  1.5609E+003
 247.00  1.6805E+003
 247.50  1.7432E+003
 248.00  1.7474E+003
 248.50  1.7329E+003
 249.00  1.6798E+003
 249.50  1.5683E+003
 250.00  1.4637E+003
 250.50  1.4158E+003
 251.00  1.3932E+003
 251.50  1.3984E+003
 252.00  1.4143E+003
 252.50  1.4230E+003
 253.00  1.4535E+003
 253.50  1.4820E+003
 254.00  1.4654E+003
 254.50  1.4265E+003
 255.00  1.4013E+003
 255.50  1.3805E+003
 256.00  1.3676E+003
 256.50  1.3710E+003
 257.00  1.4144E+003
 257.50  1.4872E+003
 258.00  1.5594E+003
 258.50  1.6128E+003
 259.00  1.6325E+003
 259.50  1.6095E+003
 260.00  1.5523E+003
 260.50  1.4731E+003
 261.00  1.3889E+003
 261.50  1.3463E+003
 262.00  1.4027E+003
 262.50  1.5352E+003
 263.00  1.6799E+003
 263.50  1.7677E+003
 264.00  1.8012E+003
 264.50  1.7637E+003
 265.00  1.6458E+003
 265.50  1.5011E+003
 266.00  1.4778E+003
 266.50  1.5457E+003
 267.00  1.5823E+003
 267.50  1.5735E+003
 268.00  1.5459E+003
 268.50  1.4812E+003
 269.00  1.4069E+003
 269.50  1.3812E+003
 270.00  1.3986E+003
 270.50  1.4522E+003
 271.00  1.5368E+003
 271.50  1.6152E+003
 272.00  1.6776E+003
 272.50  1.7113E+003
 273.00  1.6999E+003
 273.50  1.6605E+003
 274.00  1.6069E+003
 274.50  1.5164E+003
 275.00  1.4387E+003
 275.50  1.4233E+003
 276.00  1.4109E+003
 276.50  1.4505E+003
 277.00  1.5270E+003
 277.50  1.5701E+003
 278.00  1.5981E+003
 278.50  1.6081E+003
 279.00  1.5383E+003
 279.50  1.4151E+003
 280.00  1.3187E+003
 280.50  1.2788E+003
 281.00  1.2839E+003
 281.50  1.3223E+003
 282.00  1.3745E+003
 282.50  1.4086E+003
 283.00  1.4224E+003
 283.50  1.4273E+003
 284.00  1.4164E+003
 284.50  1.4021E+003
 285.00  1.4238E+003
 285.50  1.4693E+003
 286.00  1.4765E+003
 286.50  1.4775E+003
 287.00  1.5377E+003
 287.50  1.5853E+003
 288.00  1.5625E+003
 288.50  1.5492E+003
 289.00  1.5742E+003
 289.50  1.6022E+003
 290.00  1.6959E+003
 290.50  1.8257E+003
 291.00  1.9215E+003
 291.50  1.9943E+003
 292.00  1.9738E+003
 292.50  1.8222E+003
 293.00  1.6583E+003
 293.50  1.5740E+003
 294.00  1.5370E+003
 294.50  1.5409E+003
 295.00  1.6030E+003
 295.50  1.6799E+003
 296.00  1.6941E+003
 296.50  1.6538E+003
 297.00  1.5980E+003
 297.50  1.5264E+003
 298.00  1.4529E+003
 298.50  1.4091E+003
 299.00  1.3915E+003
 299.50  1.3930E+003
 300.00  1.4293E+003
 300.50  1.4839E+003
 301.00  1.5253E+003
 301.50  1.5622E+003
 302.00  1.5967E+003
 302.50  1.5937E+003
 303.00  1.5588E+003
 303.50  1.5416E+003
 304.00  1.5740E+003
 304.50  1.5936E+003
 305.00  1.5719E+003
 305.50  1.5765E+003
 306.00  1.5961E+003
 306.50  1.5408E+003
 307.00  1.5273E+003
 307.50  1.5802E+003
 308.00  1.5869E+003
 308.50  1.5694E+003
 309.00  1.5801E+003
 309.50  1.6282E+003
 310.00  1.7036E+003
 310.50  1.7651E+003
 311.00  1.8207E+003
 311.50  1.8705E+003
 312.00  1.8456E+003
 312.50  1.7842E+003
 313.00  1.7611E+003
 313.50  1.7490E+003
 314.00  1.7245E+003
 314.50  1.7053E+003
 315.00  1.7024E+003
 315.50  1.7393E+003
 316.00  1.7994E+003
 316.50  1.8219E+003
 317.00  1.8101E+003
 317.50  1.7838E+003
 318.00  1.7074E+003
 318.50  1.5955E+003
 319.00  1.5270E+003
 319.50  1.5233E+003
 320.00  1.5756E+003
 320.50  1.7057E+003
 321.00  1.8353E+003
 321.50  1.8902E+003
 322.00  1.9058E+003
 322.50  1.8618E+003
 323.00  1.7025E+003
 323.50  1.5511E+003
 324.00  1.5421E+003
 324.50  1.5513E+003
 325.00  1.5290E+003
 325.50  1.5742E+003
 326.00  1.6778E+003
 326.50  1.7025E+003
 327.00  1.6682E+003
 327.50  1.6688E+003
 328.00  1.6236E+003
 328.50  1.5169E+003
 329.00  1.4344E+003
 329.50  1.4049E+003
 330.00  1.3898E+003
 330.50  1.3810E+003
 331.00  1.3694E+003
 331.50  1.3493E+003
 332.00  1.3671E+003
 332.50  1.4073E+003
 333.00  1.4509E+003
 333.50  1.5088E+003
 334.00  1.5843E+003
 334.50  1.6369E+003
 335.00  1.6766E+003
 335.50  1.7335E+003
 336.00  1.7602E+003
 336.50  1.7288E+003
 337.00  1.6835E+003
 337.50  1.6351E+003
 338.00  1.5493E+003
 338.50  1.4622E+003
 339.00  1.4135E+003
 339.50  1.3915E+003
 340.00  1.3938E+003
 340.50  1.4398E+003
 341.00  1.5117E+003
 341.50  1.5642E+003
 342.00  1.6126E+003
 342.50  1.6647E+003
 343.00  1.7941E+003
 343.50  2.0579E+003
 344.00  2.2919E+003
 344.50  2.3749E+003
 345.00  2.3757E+003
 345.50  2.2747E+003
 346.00  2.0009E+003
 346.50  1.7389E+003
 347.00  1.6533E+003
 347.50  1.6524E+003
 348.00  1.6512E+003
 348.50  1.6589E+003
 349.00  1.6848E+003
 349.50  1.6786E+003
 350.00  1.6150E+003
 350.50  1.5611E+003
 351.00  1.5884E+003
 351.50  1.6623E+003
 352.00  1.7274E+003
 352.50  1.7686E+003
 353.00  1.7821E+003
 353.50  1.7549E+003
 354.00  1.7166E+003
 354.50  1.6919E+003
 355.00  1.6801E+003
 355.50  1.6904E+003
 356.00  1.7274E+003
 356.50  1.7404E+003
 357.00  1.7086E+003
 357.50  1.6680E+003
 358.00  1.6310E+003
 358.50  1.5811E+003
 359.00  1.5310E+003
 359.50  1.5106E+003
 360.00  1.5451E+003
 360.50  1.6008E+003
 361.00  1.6225E+003
 361.50  1.6489E+003
 362.00  1.6825E+003
 362.50  1.6851E+003
 363.00  1.6676E+003
 363.50  1.6207E+003
 364.00  1.5523E+003
 364.50  1.5271E+003
 365.00  1.5069E+003
 365.50  1.4696E+003
 366.00  1.4818E+003
 366.50  1.5349E+003
 367.00  1.5406E+003
 367.50  1.5553E+003
 368.00  1.6010E+003
 368.50  1.5756E+003
 369.00  1.5088E+003
 369.50  1.5407E+003
 370.00  1.6799E+003
 370.50  1.7926E+003
 371.00  1.8772E+003
 371.50  1.9288E+003
 372.00  1.8743E+003
 372.50  1.7298E+003
 373.00  1.6026E+003
 373.50  1.5454E+003
 374.00  1.5115E+003
 374.50  1.5007E+003
 375.00  1.5662E+003
 375.50  1.6500E+003
 376.00  1.6615E+003
 376.50  1.7007E+003
 377.00  1.7720E+003
 377.50  1.7173E+003
 378.00  1.7003E+003
 378.50  1.7528E+003
 379.00  1.7854E+003
 379.50  1.8267E+003
 380.00  1.9144E+003
 380.50  1.9816E+003
 381.00  2.1612E+003
 381.50  2.3278E+003
 382.00  2.3339E+003
 382.50  2.3019E+003
 383.00  2.2544E+003
 383.50  2.0997E+003
 384.00  1.8898E+003
 384.50  1.7889E+003
 385.00  1.7103E+003
 385.50  1.6114E+003
 386.00  1.5419E+003
 386.50  1.5337E+003
 387.00  1.5734E+003
 387.50  1.6166E+003
 388.00  1.6254E+003
 388.50  1.5860E+003
 389.00  1.5390E+003
 389.50  1.4757E+003
 390.00  1.4205E+003
 390.50  1.3966E+003
 391.00  1.3769E+003
 391.50  1.3646E+003
 392.00  1.3642E+003
 392.50  1.3823E+003
 393.00  1.4136E+003
 393.50  1.4593E+003
 394.00  1.4969E+003
 394.50  1.5097E+003
 395.00  1.5250E+003
 395.50  1.5537E+003
 396.00  1.5962E+003
 396.50  1.6711E+003
 397.00  1.7849E+003
 397.50  1.9327E+003
 398.00  2.1488E+003
 398.50  2.4114E+003
 399.00  2.6942E+003
 399.50  2.9903E+003
 400.00  3.2552E+003
 400.50  3.4569E+003
 401.00  3.6739E+003
 401.50  3.9559E+003
 402.00  4.2152E+003
 402.50  4.4211E+003
 403.00  4.5664E+003
 403.50  4.5921E+003
 404.00  4.4625E+003
 404.50  4.2544E+003
 405.00  4.0603E+003
 405.50  3.8514E+003
 406.00  3.5812E+003
 406.50  3.2781E+003
 407.00  2.9713E+003
 407.50  2.6620E+003
 408.00  2.4049E+003
 408.50  2.2343E+003
 409.00  2.1282E+003
 409.50  2.0780E+003
 410.00  2.0243E+003
 410.50  1.9266E+003
 411.00  1.8546E+003
 411.50  1.8245E+003
 412.00  1.7638E+003
 412.50  1.7072E+003
 413.00  1.6809E+003
 413.50  1.6173E+003
 414.00  1.5334E+003
 414.50  1.5396E+003
 415.00  1.6257E+003
 415.50  1.7198E+003
 416.00  1.8227E+003
 416.50  1.9002E+003
 417.00  1.8598E+003
 417.50  1.7249E+003
 418.00  1.6059E+003
 418.50  1.4971E+003
 419.00  1.4081E+003
 419.50  1.3786E+003
 420.00  1.3777E+003
 420.50  1.3603E+003
 421.00  1.3618E+003
 421.50  1.4285E+003
 422.00  1.5099E+003
 422.50  1.5523E+003
 423.00  1.5784E+003
 423.50  1.5721E+003
 424.00  1.5170E+003
 424.50  1.4637E+003
 425.00  1.4435E+003
 425.50  1.4374E+003
 426.00  1.4659E+003
 426.50  1.4743E+003
 427.00  1.4346E+003
 427.50  1.4244E+003
 428.00  1.4220E+003
 428.50  1.3952E+003
 429.00  1.3811E+003
 429.50  1.4237E+003
 430.00  1.4699E+003
 430.50  1.5203E+003
 431.00  1.5821E+003
 431.50  1.6112E+003
 432.00  1.6131E+003
 432.50  1.6570E+003
 433.00  1.7060E+003
 433.50  1.7834E+003
 434.00  1.8980E+003
 434.50  1.9351E+003
 435.00  1.8852E+003
 435.50  1.8092E+003
 436.00  1.6891E+003
 436.50  1.5674E+003
 437.00  1.5156E+003
 437.50  1.5041E+003
 438.00  1.4966E+003
 438.50  1.4917E+003
 439.00  1.4836E+003
 439.50  1.4542E+003
 440.00  1.4401E+003
 440.50  1.4600E+003
 441.00  1.5038E+003
 441.50  1.5703E+003
 442.00  1.6402E+003
 442.50  1.6783E+003
 443.00  1.6756E+003
 443.50  1.6433E+003
 444.00  1.6443E+003
 444.50  1.7227E+003
 445.00  1.7913E+003
 445.50  1.8110E+003
 446.00  1.8073E+003
 446.50  1.7875E+003
 447.00  1.7323E+003
 447.50  1.6568E+003
 448.00  1.6260E+003
 448.50  1.6691E+003
 449.00  1.7414E+003
 449.50  1.8028E+003
 450.00  1.8618E+003
 450.50  1.9333E+003
 451.00  1.9223E+003
 451.50  1.7858E+003
 452.00  1.6622E+003
 452.50  1.5876E+003
 453.00  1.4966E+003
 453.50  1.4429E+003
 454.00  1.4415E+003
 454.50  1.4200E+003
 455.00  1.4296E+003
 455.50  1.5086E+003
 456.00  1.5697E+003
 456.50  1.6272E+003
 457.00  1.7346E+003
 457.50  1.7958E+003
 458.00  1.7902E+003
 458.50  1.8116E+003
 459.00  1.7987E+003
 459.50  1.7006E+003
 460.00  1.6307E+003
 460.50  1.6092E+003
 461.00  1.7234E+003
 461.50  1.9474E+003
 462.00  2.1797E+003
 462.50  2.3995E+003
 463.00  2.5048E+003
 463.50  2.3612E+003
 464.00  2.1301E+003
 464.50  2.0724E+003
 465.00  2.0570E+003
 465.50  2.0168E+003
 466.00  2.0200E+003
 466.50  2.0001E+003
 467.00  1.8272E+003
 467.50  1.6268E+003
 468.00  1.5298E+003
 468.50  1.4947E+003
 469.00  1.4630E+003
 469.50  1.4594E+003
 470.00  1.5090E+003
 470.50  1.5800E+003
 471.00  1.6342E+003
 471.50  1.6736E+003
 472.00  1.6742E+003
 472.50  1.6128E+003
 473.00  1.5294E+003
 473.50  1.5203E+003
 474.00  1.5734E+003
 474.50  1.6123E+003
 475.00  1.6416E+003
 475.50  1.6301E+003
 476.00  1.5853E+003
 476.50  1.5459E+003
 477.00  1.5548E+003
 477.50  1.6119E+003
 478.00  1.6683E+003
 478.50  1.6625E+003
 479.00  1.6149E+003
 479.50  1.5563E+003
 480.00  1.5323E+003
 480.50  1.5872E+003
 481.00  1.6595E+003
 481.50  1.7089E+003
 482.00  1.7285E+003
 482.50  1.6576E+003
 483.00  1.5502E+003
 483.50  1.5216E+003
 484.00  1.5554E+003
 484.50  1.6537E+003
 485.00  1.7631E+003
 485.50  1.7852E+003
 486.00  1.7615E+003
 486.50  1.7255E+003
 487.00  1.7098E+003
 487.50  1.7165E+003
 488.00  1.7191E+003
 488.50  1.7012E+003
 489.00  1.6443E+003
 489.50  1.5349E+003
 490.00  1.4370E+003
 490.50  1.3766E+003
 491.00  1.3359E+003
 491.50  1.3155E+003
 492.00  1.3272E+003
 492.50  1.3661E+003
 493.00  1.4434E+003
 493.50  1.5370E+003
 494.00  1.5909E+003
 494.50  1.6817E+003
 495.00  1.8552E+003
 495.50  1.9517E+003
 496.00  1.9625E+003
 496.50  2.0022E+003
 497.00  1.9577E+003
 497.50  1.8475E+003
 498.00  1.7841E+003
 498.50  1.7465E+003
 499.00  1.6713E+003
 499.50  1.5832E+003
 500.00  1.5181E+003
 500.50  1.4974E+003
 501.00  1.5330E+003
 501.50  1.5896E+003
 502.00  1.6290E+003
 502.50  1.6265E+003
 503.00  1.5660E+003
 503.50  1.4806E+003
 504.00  1.4449E+003
 504.50  1.4581E+003
 505.00  1.4915E+003
 505.50  1.6369E+003
 506.00  1.8160E+003
 506.50  1.8988E+003
 507.00  1.9572E+003
 507.50  1.9856E+003
 508.00  1.8949E+003
 508.50  1.7745E+003
 509.00  1.6941E+003
 509.50  1.5975E+003
 510.00  1.5043E+003
 510.50  1.4735E+003
 511.00  1.4689E+003
 511.50  1.4463E+003
 512.00  1.4624E+003
 512.50  1.4726E+003
 513.00  1.4321E+003
 513.50  1.4496E+003
 514.00  1.5091E+003
 514.50  1.5562E+003
 515.00  1.5985E+003
 515.50  1.6131E+003
 516.00  1.5800E+003
 516.50  1.5445E+003
 517.00  1.5573E+003
 517.50  1.6246E+003
 518.00  1.7071E+003
 518.50  1.7607E+003
 519.00  1.7702E+003
 519.50  1.7286E+003
 520.00  1.6567E+003
 520.50  1.6132E+003
 521.00  1.5971E+003
 521.50  1.6288E+003
 522.00  1.7415E+003
 522.50  1.8524E+003
 523.00  1.8866E+003
 523.50  1.8844E+003
 524.00  1.8231E+003
 524.50  1.6844E+003
 525.00  1.5590E+003
 525.50  1.5096E+003
 526.00  1.4759E+003
 526.50  1.4717E+003
 527.00  1.7586E+003
 527.50  2.2080E+003
 528.00  2.4513E+003
 528.50  2.5726E+003
 529.00  2.6256E+003
 529.50  2.3474E+003
 530.00  1.9981E+003
 530.50  1.8737E+003
 531.00  1.8287E+003
 531.50  1.7852E+003
 532.00  1.7281E+003
 532.50  1.6595E+003
 533.00  1.5841E+003
 533.50  1.5119E+003
 534.00  1.4565E+003
 534.50  1.4600E+003
 535.00  1.4949E+003
 535.50  1.4990E+003
 536.00  1.4839E+003
 536.50  1.4563E+003
 537.00  1.4194E+003
 537.50  1.4110E+003
 538.00  1.4341E+003
 538.50  1.4630E+003
 539.00  1.4587E+003
 539.50  1.4297E+003
 540.00  1.4209E+003
 540.50  1.4482E+003
 541.00  1.5235E+003
 541.50  1.5995E+003
 542.00  1.6130E+003
 542.50  1.5838E+003
 543.00  1.5216E+003
 543.50  1.4749E+003
 544.00  1.4861E+003
 544.50  1.5660E+003
 545.00  1.6529E+003
 545.50  1.6820E+003
 546.00  1.6819E+003
 546.50  1.6744E+003
 547.00  1.6430E+003
 547.50  1.6307E+003
 548.00  1.6380E+003
 548.50  1.6453E+003
 549.00  1.6367E+003
 549.50  1.6144E+003
 550.00  1.5857E+003
 550.50  1.5478E+003
 551.00  1.5634E+003
 551.50  1.6096E+003
 552.00  1.6526E+003
 552.50  1.6826E+003
 553.00  1.6753E+003
 553.50  1.6198E+003
 554.00  1.5548E+003
 554.50  1.4810E+003
 555.00  1.4793E+003
 555.50  1.5399E+003
 556.00  1.6323E+003
 556.50  1.7055E+003
 557.00  1.7478E+003
 557.50  1.7126E+003
 558.00  1.6553E+003
 558.50  1.6880E+003
 559.00  1.8105E+003
 559.50  1.9416E+003
 560.00  1.9975E+003
 560.50  1.9039E+003
 561.00  1.7675E+003
 561.50  1.6702E+003
 562.00  1.5762E+003
 562.50  1.5716E+003
 563.00  1.6130E+003
 563.50  1.5932E+003
 564.00  1.5362E+003
 564.50  1.5298E+003
 565.00  1.5254E+003
 565.50  1.4639E+003
 566.00  1.3877E+003
 566.50  1.3593E+003
 567.00  1.3379E+003
 567.50  1.3848E+003
 568.00  1.5087E+003
 568.50  1.6205E+003
 569.00  1.7126E+003
 569.50  1.7533E+003
 570.00  1.7112E+003
 570.50  1.6559E+003
 571.00  1.5952E+003
 571.50  1.5249E+003
 572.00  1.5009E+003
 572.50  1.5183E+003
 573.00  1.5694E+003
 573.50  1.6089E+003
 574.00  1.6398E+003
 574.50  1.6713E+003
 575.00  1.6727E+003
 575.50  1.6376E+003
 576.00  1.5836E+003
 576.50  1.5150E+003
 577.00  1.4494E+003
 577.50  1.4462E+003
 578.00  1.5077E+003
 578.50  1.5430E+003
 579.00  1.5941E+003
 579.50  1.6498E+003
 580.00  1.6349E+003
 580.50  1.6707E+003
 581.00  1.7482E+003
 581.50  1.7578E+003
 582.00  1.7349E+003
 582.50  1.6722E+003
 583.00  1.5508E+003
 583.50  1.4710E+003
 584.00  1.4472E+003
 584.50  1.4509E+003
 585.00  1.4639E+003
 585.50  1.5145E+003
 586.00  1.5283E+003
 586.50  1.5102E+003
 587.00  1.5354E+003
 587.50  1.5676E+003
 588.00  1.5786E+003
 588.50  1.6136E+003
 589.00  1.7011E+003
 589.50  1.8051E+003
 590.00  1.8390E+003
 590.50  1.8367E+003
 591.00  1.8169E+003
 591.50  1.7103E+003
 592.00  1.6460E+003
 592.50  1.6958E+003
 593.00  1.7057E+003
 593.50  1.6619E+003
 594.00  1.6267E+003
 594.50  1.5212E+003
 595.00  1.4301E+003
 595.50  1.4198E+003
 596.00  1.4264E+003
 596.50  1.4099E+003
 597.00  1.4024E+003
 597.50  1.4451E+003
 598.00  1.4967E+003
 598.50  1.5383E+003
 599.00  1.5970E+003
 599.50  1.6817E+003
 600.00  1.7363E+003
 600.50  1.7791E+003
 601.00  1.7957E+003
 601.50  1.7287E+003
 602.00  1.6144E+003
 602.50  1.5041E+003
 603.00  1.4074E+003
 603.50  1.3792E+003
 604.00  1.3788E+003
 604.50  1.3823E+003
 605.00  1.3972E+003
 605.50  1.4193E+003
 606.00  1.4306E+003
 606.50  1.4297E+003
 607.00  1.4475E+003
 607.50  1.4729E+003
 608.00  1.4667E+003
 608.50  1.4644E+003
 609.00  1.4645E+003
 609.50  1.4482E+003
 610.00  1.4723E+003
 610.50  1.5401E+003
 611.00  1.6196E+003
 611.50  1.6823E+003
 612.00  1.7031E+003
 612.50  1.6973E+003
 613.00  1.6552E+003
 613.50  1.6121E+003
 614.00  1.6044E+003
 614.50  1.6333E+003
 615.00  1.7169E+003
 615.50  1.7914E+003
 616.00  1.8325E+003
 616.50  1.8791E+003
 617.00  1.8696E+003
 617.50  1.7902E+003
 618.00  1.7079E+003
 618.50  1.6347E+003
 619.00  1.5317E+003
 619.50  1.4480E+003
 620.00  1.4699E+003
 620.50  1.5753E+003
 621.00  1.6851E+003
 621.50  1.8080E+003
 622.00  1.8845E+003
 622.50  1.8596E+003
 623.00  1.7875E+003
 623.50  1.7081E+003
 624.00  1.6316E+003
 624.50  1.5969E+003
 625.00  1.5830E+003
 625.50  1.5786E+003
 626.00  1.5857E+003
 626.50  1.5938E+003
 627.00  1.5655E+003
 627.50  1.5380E+003
 628.00  1.5508E+003
 628.50  1.5524E+003
 629.00  1.5173E+003
 629.50  1.5137E+003
 630.00  1.5570E+003
 630.50  1.7903E+003
 631.00  2.0261E+003
 631.50  2.1082E+003
 632.00  2.0915E+003
 632.50  1.8808E+003
 633.00  1.5673E+003
 633.50  1.4579E+003
 634.00  1.4640E+003
 634.50  1.5362E+003
 635.00  1.6049E+003
 635.50  1.6624E+003
 636.00  1.7222E+003
 636.50  1.7290E+003
 637.00  1.6931E+003
 637.50  1.6415E+003
 638.00  1.5935E+003
 638.50  1.5696E+003
 639.00  1.6168E+003
 639.50  1.7935E+003
 640.00  1.8767E+003
 640.50  1.8535E+003
 641.00  1.8881E+003
 641.50  1.8253E+003
 642.00  1.7106E+003
 642.50  1.7200E+003
 643.00  1.7757E+003
 643.50  1.7731E+003
 644.00  1.7361E+003
 644.50  1.7137E+003
 645.00  1.6507E+003
 645.50  1.5528E+003
 646.00  1.5165E+003
 646.50  1.6599E+003
 647.00  1.8394E+003
 647.50  1.9574E+003
 648.00  2.0992E+003
 648.50  2.1102E+003
 649.00  1.9404E+003
 649.50  1.8089E+003
 650.00  1.7230E+003
 650.50  1.7834E+003
 651.00  1.8977E+003
 651.50  2.0065E+003
 652.00  2.1015E+003
 652.50  1.9966E+003
 653.00  1.7750E+003
 653.50  1.6919E+003
 654.00  1.6756E+003
 654.50  1.6924E+003
 655.00  1.7192E+003
 655.50  1.7291E+003
 656.00  1.7053E+003
 656.50  1.6360E+003
 657.00  1.5847E+003
 657.50  1.5403E+003
 658.00  1.4759E+003
 658.50  1.4538E+003
 659.00  1.4679E+003
 659.50  1.4860E+003
 660.00  1.5051E+003
 660.50  1.5656E+003
 661.00  1.6841E+003
 661.50  1.7921E+003
 662.00  1.9049E+003
 662.50  1.9480E+003
 663.00  1.8574E+003
 663.50  1.7728E+003
 664.00  1.7250E+003
 664.50  1.7213E+003
 665.00  1.7978E+003
 665.50  1.8560E+003
 666.00  1.8566E+003
 666.50  1.7965E+003
 667.00  1.7070E+003
 667.50  1.6224E+003
 668.00  1.5542E+003
 668.50  1.5803E+003
 669.00  1.6257E+003
 669.50  1.6353E+003
 670.00  1.6770E+003
 670.50  1.7459E+003
 671.00  1.8088E+003
 671.50  1.8487E+003
 672.00  1.8868E+003
 672.50  1.9633E+003
 673.00  2.0491E+003
 673.50  2.0999E+003
 674.00  2.1188E+003
 674.50  2.0485E+003
 675.00  1.9146E+003
 675.50  1.8277E+003
 676.00  1.8332E+003
 676.50  1.8964E+003
 677.00  1.8894E+003
 677.50  1.7950E+003
 678.00  1.7066E+003
 678.50  1.5984E+003
 679.00  1.5339E+003
 679.50  1.5409E+003
 680.00  1.5783E+003
 680.50  1.6250E+003
 681.00  1.6500E+003
 681.50  1.6584E+003
 682.00  1.6549E+003
 682.50  1.6330E+003
 683.00  1.6601E+003
 683.50  1.7319E+003
 684.00  1.8062E+003
 684.50  1.8809E+003
 685.00  1.9186E+003
 685.50  1.8780E+003
 686.00  1.7930E+003
 686.50  1.6845E+003
 687.00  1.5903E+003
 687.50  1.5271E+003
 688.00  1.5313E+003
 688.50  1.5888E+003
 689.00  1.6452E+003
 689.50  1.6732E+003
 690.00  1.6947E+003
 690.50  1.7088E+003
 691.00  1.6843E+003
 691.50  1.6509E+003
 692.00  1.6259E+003
 692.50  1.5843E+003
 693.00  1.5705E+003
 693.50  1.6241E+003
 694.00  1.6851E+003
 694.50  1.7561E+003
 695.00  1.8436E+003
 695.50  1.8496E+003
 696.00  1.7842E+003
 696.50  1.6952E+003
 697.00  1.6425E+003
 697.50  1.6522E+003
 698.00  1.7075E+003
 698.50  1.7880E+003
 699.00  1.7964E+003
 699.50  1.7212E+003
 700.00  1.6736E+003
 700.50  1.6699E+003
 701.00  1.6654E+003
 701.50  1.6783E+003
 702.00  1.7297E+003
 702.50  1.7297E+003
 703.00  1.7021E+003
 703.50  1.6985E+003
 704.00  1.6835E+003
 704.50  1.7286E+003
 705.00  1.8373E+003
 705.50  1.9426E+003
 706.00  1.9684E+003
 706.50  1.9405E+003
 707.00  1.9193E+003
 707.50  1.8932E+003
 708.00  1.9067E+003
 708.50  1.9635E+003
 709.00  1.9655E+003
 709.50  1.9266E+003
 710.00  1.9587E+003
 710.50  2.0041E+003
 711.00  2.0386E+003
 711.50  2.0524E+003
 712.00  1.9678E+003
 712.50  1.8668E+003
 713.00  1.7845E+003
 713.50  1.7353E+003
 714.00  1.7577E+003
 714.50  1.8446E+003
 715.00  1.9228E+003
 715.50  2.0745E+003
 716.00  2.2090E+003
 716.50  2.2038E+003
 717.00  2.1199E+003
 717.50  1.9744E+003
 718.00  1.8463E+003
 718.50  1.8246E+003
 719.00  1.8971E+003
 719.50  1.9410E+003
 720.00  1.9102E+003
 720.50  1.8699E+003
 721.00  1.8227E+003
 721.50  1.8038E+003
 722.00  1.8397E+003
 722.50  1.8660E+003
 723.00  1.8301E+003
 723.50  1.7940E+003
 724.00  1.7972E+003
 724.50  1.7873E+003
 725.00  1.8039E+003
 725.50  1.8719E+003
 726.00  1.8654E+003
 726.50  1.8434E+003
 727.00  1.8369E+003
 727.50  1.7992E+003
 728.00  1.7671E+003
 728.50  1.7904E+003
 729.00  1.8412E+003
 729.50  1.8638E+003
 730.00  1.8628E+003
 730.50  1.8416E+003
 731.00  1.7807E+003
 731.50  1.8006E+003
 732.00  1.8689E+003
 732.50  1.9176E+003
 733.00  1.9231E+003
 733.50  1.8784E+003
 734.00  1.8423E+003
 734.50  1.8397E+003
 735.00  1.8126E+003
 735.50  1.7844E+003
 736.00  1.7255E+003
 736.50  1.6786E+003
 737.00  1.7515E+003
 737.50  1.8697E+003
 738.00  1.9883E+003
 738.50  2.0106E+003
 739.00  1.9140E+003
 739.50  1.7812E+003
 740.00  1.6595E+003
 740.50  1.5862E+003
 741.00  1.5979E+003
 741.50  1.7092E+003
 742.00  1.8406E+003
 742.50  1.9431E+003
 743.00  2.0451E+003
 743.50  2.0812E+003
 744.00  1.9942E+003
 744.50  1.8671E+003
 745.00  1.7454E+003
 745.50  1.6401E+003
 746.00  1.6135E+003
 746.50  1.6689E+003
 747.00  1.7396E+003
 747.50  1.7979E+003
 748.00  1.8156E+003
 748.50  1.7621E+003
 749.00  1.7348E+003
 749.50  1.7585E+003
 750.00  1.7637E+003
 750.50  1.8124E+003
 751.00  1.8627E+003
 751.50  1.8244E+003
 752.00  1.7986E+003
 752.50  1.8064E+003
 753.00  1.7623E+003
 753.50  1.7427E+003
 754.00  1.8056E+003
 754.50  1.8307E+003
 755.00  1.8304E+003
 755.50  1.8839E+003
 756.00  2.0093E+003
 756.50  2.0791E+003
 757.00  2.1004E+003
 757.50  2.0654E+003
 758.00  1.9221E+003
 758.50  1.8525E+003
 759.00  1.8642E+003
 759.50  1.8747E+003
 760.00  1.8316E+003
 760.50  1.7506E+003
 761.00  1.6926E+003
 761.50  1.6826E+003
 762.00  1.6896E+003
 762.50  1.6912E+003
 763.00  1.7303E+003
 763.50  1.7893E+003
 764.00  1.8388E+003
 764.50  1.8440E+003
 765.00  1.8259E+003
 765.50  1.8012E+003
 766.00  1.7587E+003
 766.50  1.7314E+003
 767.00  1.7030E+003
 767.50  1.6790E+003
 768.00  1.6832E+003
 768.50  1.6926E+003
 769.00  1.6937E+003
 769.50  1.6569E+003
 770.00  1.5959E+003
 770.50  1.5509E+003
 771.00  1.5381E+003
 771.50  1.5387E+003
 772.00  1.5425E+003
 772.50  1.5975E+003
 773.00  1.6907E+003
 773.50  1.7475E+003
 774.00  1.8013E+003
 774.50  1.8599E+003
 775.00  1.9167E+003
 775.50  1.9212E+003
 776.00  1.9349E+003
 776.50  1.8941E+003
 777.00  1.7500E+003
 777.50  1.6830E+003
 778.00  1.6659E+003
 778.50  1.6728E+003
 779.00  1.7080E+003
 779.50  1.7001E+003
 780.00  1.6785E+003
 780.50  1.6474E+003
 781.00  1.5959E+003
 781.50  1.6081E+003
 782.00  1.6358E+003
 782.50  1.6230E+003
 783.00  1.6466E+003
 783.50  1.6825E+003
 784.00  1.7106E+003
 784.50  1.7297E+003
 785.00  1.7253E+003
 785.50  1.6928E+003
 786.00  1.6254E+003
 786.50  1.5933E+003
 787.00  1.5882E+003
 787.50  1.5651E+003
 788.00  1.5559E+003
 788.50  1.5577E+003
 789.00  1.5883E+003
 789.50  1.6268E+003
 790.00  1.6710E+003
 790.50  1.7501E+003
 791.00  1.7945E+003
 791.50  1.8124E+003
 792.00  1.8294E+003
 792.50  1.7626E+003
 793.00  1.6569E+003
 793.50  1.5814E+003
 794.00  1.6047E+003
 794.50  1.7153E+003
 795.00  1.8226E+003
 795.50  1.8690E+003
 796.00  1.7934E+003
 796.50  1.6662E+003
 797.00  1.5866E+003
 797.50  1.5674E+003
 798.00  1.5865E+003
 798.50  1.5486E+003
 799.00  1.4990E+003
 799.50  1.5021E+003
 800.00  1.5677E+003
 800.50  1.6973E+003
 801.00  1.7973E+003
 801.50  1.8184E+003
 802.00  1.7626E+003
 802.50  1.6525E+003
 803.00  1.6077E+003
 803.50  1.6356E+003
 804.00  1.6591E+003
 804.50  1.6958E+003
 805.00  1.7036E+003
 805.50  1.6657E+003
 806.00  1.6505E+003
 806.50  1.6964E+003
 807.00  1.7401E+003
 807.50  1.7366E+003
 808.00  1.7293E+003
 808.50  1.7504E+003
 809.00  1.8971E+003
 809.50  2.0744E+003
 810.00  2.1550E+003
 810.50  2.0704E+003
 811.00  1.8529E+003
 811.50  1.6712E+003
 812.00  1.5978E+003
 812.50  1.6033E+003
 813.00  1.6422E+003
 813.50  1.6507E+003
 814.00  1.6656E+003
 814.50  1.7233E+003
 815.00  1.7331E+003
 815.50  1.7009E+003
 816.00  1.6355E+003
 816.50  1.5445E+003
 817.00  1.5050E+003
 817.50  1.5824E+003
 818.00  1.7491E+003
 818.50  1.9143E+003
 819.00  2.0279E+003
 819.50  2.0141E+003
 820.00  1.9006E+003
 820.50  1.8065E+003
 821.00  1.7640E+003
 821.50  1.7277E+003
 822.00  1.7115E+003
 822.50  1.6648E+003
 823.00  1.6541E+003
 823.50  1.7181E+003
 824.00  1.7448E+003
 824.50  1.7485E+003
 825.00  1.6925E+003
 825.50  1.5868E+003
 826.00  1.5002E+003
 826.50  1.4751E+003
 827.00  1.5224E+003
 827.50  1.5817E+003
 828.00  1.6057E+003
 828.50  1.5574E+003
 829.00  1.4492E+003
 829.50  1.4111E+003
 830.00  1.4954E+003
 830.50  1.6395E+003
 831.00  1.7333E+003
 831.50  1.7327E+003
 832.00  1.6675E+003
 832.50  1.6093E+003
 833.00  1.5746E+003
 833.50  1.5528E+003
 834.00  1.6328E+003
 834.50  1.7719E+003
 835.00  1.8365E+003
 835.50  1.8618E+003
 836.00  1.7776E+003
 836.50  1.6213E+003
 837.00  1.5508E+003
 837.50  1.5436E+003
 838.00  1.5435E+003
 838.50  1.5216E+003
 839.00  1.5377E+003
 839.50  1.5489E+003
 840.00  1.5083E+003
 840.50  1.4705E+003
 841.00  1.4258E+003
 841.50  1.4416E+003
 842.00  1.4716E+003
 842.50  1.5251E+003
 843.00  1.5839E+003
 843.50  1.6318E+003
 844.00  1.6808E+003
 844.50  1.6594E+003
 845.00  1.6355E+003
 845.50  1.5978E+003
 846.00  1.6207E+003
 846.50  1.7097E+003
 847.00  1.7472E+003
 847.50  1.7059E+003
 848.00  1.6288E+003
 848.50  1.5526E+003
 849.00  1.5434E+003
 849.50  1.5957E+003
 850.00  1.5915E+003
 850.50  1.5484E+003
 851.00  1.4767E+003
 851.50  1.4520E+003
 852.00  1.5351E+003
 852.50  1.6200E+003
 853.00  1.9679E+003
 853.50  2.3541E+003
 854.00  2.4001E+003
 854.50  2.3836E+003
 855.00  2.0494E+003
 855.50  1.6724E+003
 856.00  1.5682E+003
 856.50  1.5392E+003
 857.00  1.5562E+003
 857.50  1.6063E+003
 858.00  1.6546E+003
 858.50  1.6398E+003
 859.00  1.5692E+003
 859.50  1.4651E+003
 860.00  1.3734E+003
 860.50  1.4596E+003
 861.00  1.5480E+003
 861.50  1.5985E+003
 862.00  1.6054E+003
 862.50  1.5014E+003
 863.00  1.4031E+003
 863.50  1.3848E+003
 864.00  1.4573E+003
 864.50  1.5797E+003
 865.00  1.6552E+003
 865.50  1.6373E+003
 866.00  1.5597E+003
 866.50  1.4756E+003
 867.00  1.4848E+003
 867.50  1.5731E+003
 868.00  1.6103E+003
 868.50  1.5843E+003
 869.00  1.5237E+003
 869.50  1.4524E+003
 870.00  1.4237E+003
 870.50  1.4128E+003
 871.00  1.4644E+003
 871.50  1.5500E+003
 872.00  1.6483E+003
 872.50  1.6738E+003
 873.00  1.6097E+003
 873.50  1.6250E+003
 874.00  1.7956E+003
 874.50  1.8738E+003
 875.00  1.9659E+003
 875.50  1.9056E+003
 876.00  1.6974E+003
 876.50  1.6402E+003
 877.00  1.5797E+003
 877.50  1.5285E+003
 878.00  1.4980E+003
 878.50  1.4666E+003
 879.00  1.4492E+003
 879.50  1.4348E+003
 880.00  1.4342E+003
 880.50  1.4676E+003
 881.00  1.4637E+003
 881.50  1.4552E+003
 882.00  1.4252E+003
 882.50  1.3973E+003
 883.00  1.4386E+003
 883.50  1.5289E+003
 884.00  1.5834E+003
 884.50  1.5991E+003
 885.00  1.6200E+003
 885.50  1.6303E+003
 886.00  1.6843E+003
 886.50  1.7168E+003
 887.00  1.7513E+003
 887.50  1.7829E+003
 888.00  1.7827E+003
 888.50  1.7497E+003
 889.00  1.6306E+003
 889.50  1.5352E+003
 890.00  1.5286E+003
 890.50  1.6024E+003
 891.00  1.7152E+003
 891.50  1.7757E+003
 892.00  1.7548E+003
 892.50  1.7681E+003
 893.00  1.7328E+003
 893.50  1.6973E+003
 894.00  1.7185E+003
 894.50  1.7044E+003
 895.00  1.7306E+003
 895.50  1.7310E+003
 896.00  1.7058E+003
 896.50  1.6293E+003
 897.00  1.5251E+003
 897.50  1.4657E+003
 898.00  1.4290E+003
 898.50  1.4136E+003
 899.00  1.4210E+003
 899.50  1.4108E+003
 900.00  1.4110E+003
 900.50  1.4721E+003
 901.00  1.5493E+003
 901.50  1.6378E+003
 902.00  1.6744E+003
 902.50  1.7455E+003
 903.00  1.8067E+003
 903.50  1.8689E+003
 904.00  1.9643E+003
 904.50  1.9873E+003
 905.00  1.9528E+003
 905.50  1.8266E+003
 906.00  1.6377E+003
 906.50  1.4737E+003
 907.00  1.4131E+003
 907.50  1.4631E+003
 908.00  1.5902E+003
 908.50  1.7323E+003
 909.00  1.7957E+003
 909.50  1.8303E+003
 910.00  1.7907E+003
 910.50  1.6947E+003
 911.00  1.6215E+003
 911.50  1.5326E+003
 912.00  1.4753E+003
 912.50  1.4402E+003
 913.00  1.3742E+003
 913.50  1.3343E+003
 914.00  1.3991E+003
 914.50  1.4954E+003
 915.00  1.5774E+003
 915.50  1.6478E+003
 916.00  1.6749E+003
 916.50  1.6945E+003
 917.00  1.6896E+003
 917.50  1.7102E+003
 918.00  1.7441E+003
 918.50  2.7079E+003
 919.00  3.8256E+003
 919.50  4.1822E+003
 920.00  4.1396E+003
 920.50  3.0208E+003
 921.00  2.1179E+003
 921.50  1.8516E+003
 922.00  1.7403E+003
 922.50  1.6830E+003
 923.00  1.6648E+003
 923.50  1.6172E+003
 924.00  1.6197E+003
 924.50  1.6414E+003
 925.00  1.6899E+003
 925.50  1.6389E+003
 926.00  1.5658E+003
 926.50  1.5107E+003
 927.00  1.4913E+003
 927.50  1.5674E+003
 928.00  1.6217E+003
 928.50  1.7471E+003
 929.00  1.7530E+003
 929.50  1.7454E+003
 930.00  1.7157E+003
 930.50  1.6500E+003
 931.00  1.6195E+003
 931.50  1.6465E+003
 932.00  1.6623E+003
 932.50  1.6569E+003
 933.00  1.6108E+003
 933.50  1.5199E+003
 934.00  1.4772E+003
 934.50  1.5029E+003
 935.00  1.5731E+003
 935.50  1.6353E+003
 936.00  1.6292E+003
 936.50  1.5529E+003
 937.00  1.4585E+003
 937.50  1.4486E+003
 938.00  1.5928E+003
 938.50  1.9279E+003
 939.00  2.0699E+003
 939.50  2.0634E+003
 940.00  1.8447E+003
 940.50  1.6195E+003
 941.00  1.6054E+003
 941.50  1.6845E+003
 942.00  1.6859E+003
 942.50  1.6448E+003
 943.00  1.5534E+003
 943.50  1.4260E+003
 944.00  1.4598E+003
 944.50  1.5498E+003
 945.00  1.6284E+003
 945.50  1.7535E+003
 946.00  1.7679E+003
 946.50  1.7189E+003
 947.00  1.6364E+003
 947.50  1.5590E+003
 948.00  1.6034E+003
 948.50  1.6715E+003
 949.00  1.7394E+003
 949.50  1.7419E+003
 950.00  1.6188E+003
 950.50  1.5403E+003
 951.00  1.4716E+003
 951.50  1.4923E+003
 952.00  1.5875E+003
 952.50  1.6272E+003
 953.00  1.5777E+003
 953.50  1.4553E+003
 954.00  1.3779E+003
 954.50  1.5154E+003
 955.00  1.7317E+003
 955.50  1.8026E+003
 956.00  1.8382E+003
 956.50  1.7773E+003
 957.00  1.9138E+003
 957.50  2.0852E+003
 958.00  1.9995E+003
 958.50  1.7761E+003
 959.00  1.4586E+003
 959.50  1.3196E+003
 960.00  1.3620E+003
 960.50  1.4209E+003
 961.00  1.5135E+003
 961.50  1.5448E+003
 962.00  1.5169E+003
 962.50  1.4612E+003
 963.00  1.4061E+003
 963.50  1.4568E+003
 964.00  1.5047E+003
 964.50  1.5130E+003
 965.00  1.4868E+003
 965.50  1.4021E+003
 966.00  1.3801E+003
 966.50  1.3600E+003
 967.00  1.3883E+003
 967.50  1.5254E+003
 968.00  1.6720E+003
 968.50  1.7298E+003
 969.00  1.6940E+003
 969.50  1.6762E+003
 970.00  1.6730E+003
 970.50  1.7350E+003
 971.00  1.7380E+003
 971.50  1.7030E+003
 972.00  1.6542E+003
 972.50  1.6134E+003
 973.00  1.5456E+003
 973.50  1.5511E+003
 974.00  1.6573E+003
 974.50  1.6971E+003
 975.00  1.7196E+003
 975.50  1.6438E+003
 976.00  1.6154E+003
 976.50  1.6264E+003
 977.00  1.5872E+003
 977.50  1.5256E+003
 978.00  1.4487E+003
 978.50  1.5877E+003
 979.00  1.7383E+003
 979.50  1.9103E+003
 980.00  1.9216E+003
 980.50  1.8728E+003
 981.00  1.8370E+003
 981.50  1.7174E+003
 982.00  1.6404E+003
 982.50  1.5723E+003
 983.00  1.5448E+003
 983.50  1.5862E+003
 984.00  1.5933E+003
 984.50  1.5965E+003
 985.00  1.6258E+003
 985.50  1.6296E+003
 986.00  1.5857E+003
 986.50  1.5659E+003
 987.00  1.5914E+003
 987.50  1.6963E+003
 988.00  1.9512E+003
 988.50  1.9641E+003
 989.00  1.9707E+003
 989.50  1.8221E+003
 990.00  1.8428E+003
 990.50  1.9251E+003
 991.00  1.9232E+003
 991.50  1.8842E+003
 992.00  1.7096E+003
 992.50  1.6633E+003
 993.00  1.5770E+003
 993.50  1.4675E+003
 994.00  1.4006E+003
 994.50  1.3755E+003
 995.00  1.3801E+003
 995.50  1.4033E+003
 996.00  1.4724E+003
 996.50  1.5312E+003
 997.00  1.5768E+003
 997.50  1.6281E+003
 998.00  1.7060E+003
 998.50  1.8250E+003
 999.00  1.8478E+003
 999.50  1.8282E+003
1000.00  1.8445E+003
1000.50  1.9161E+003
1001.00  1.8959E+003
1001.50  1.8195E+003
1002.00  1.6160E+003
1002.50  1.5345E+003
1003.00  1.5643E+003
1003.50  1.6053E+003
1004.00  1.6501E+003
1004.50  1.6114E+003
1005.00  1.6565E+003
1005.50  1.6959E+003
1006.00  1.7708E+003
1006.50  1.8348E+003
1007.00  1.8718E+003
1007.50  1.8197E+003
1008.00  1.7200E+003
1008.50  1.5390E+003
1009.00  1.5270E+003
1009.50  1.6748E+003
1010.00  1.8043E+003
1010.50  1.8856E+003
1011.00  1.7663E+003
1011.50  1.7680E+003
1012.00  1.7315E+003
1012.50  1.6995E+003
1013.00  1.5751E+003
1013.50  1.4648E+003
1014.00  1.4781E+003
1014.50  1.5168E+003
1015.00  1.5542E+003
1015.50  1.5465E+003
1016.00  1.5748E+003
1016.50  1.6497E+003
1017.00  1.6311E+003
1017.50  1.6500E+003
1018.00  1.6532E+003
1018.50  1.6441E+003
1019.00  1.5927E+003
1019.50  1.5327E+003
1020.00  1.5971E+003
1020.50  1.7067E+003
1021.00  1.8307E+003
1021.50  1.7789E+003
1022.00  1.7510E+003
1022.50  1.7280E+003
1023.00  1.6360E+003
1023.50  1.5173E+003
1024.00  1.4126E+003
1024.50  1.4157E+003
1025.00  1.4594E+003
1025.50  1.5135E+003
1026.00  1.5232E+003
1026.50  1.6176E+003
1027.00  1.7899E+003
1027.50  1.8086E+003
1028.00  1.8254E+003
1028.50  1.7639E+003
1029.00  1.6811E+003
1029.50  1.7438E+003
1030.00  1.7296E+003
1030.50  1.7540E+003
1031.00  1.7397E+003
1031.50  1.6277E+003
1032.00  1.6123E+003
1032.50  1.5696E+003
1033.00  1.5772E+003
1033.50  1.6694E+003
1034.00  1.7555E+003
1034.50  1.9573E+003
1035.00  2.0249E+003
1035.50  1.9998E+003
1036.00  1.9248E+003
1036.50  1.8165E+003
1037.00  1.6829E+003
1037.50  1.6043E+003
1038.00  1.4887E+003
1038.50  1.4987E+003
1039.00  1.5012E+003
1039.50  1.4562E+003
1040.00  1.4330E+003
1040.50  1.4033E+003
1041.00  1.3621E+003
1041.50  1.3281E+003
1042.00  1.3558E+003
1042.50  1.5221E+003
1043.00  1.7955E+003
1043.50  1.9495E+003
1044.00  1.9823E+003
1044.50  1.9199E+003
1045.00  1.7378E+003
1045.50  1.6048E+003
1046.00  1.4310E+003
1046.50  1.3441E+003
1047.00  1.3918E+003
1047.50  1.5258E+003
1048.00  1.6469E+003
1048.50  1.8547E+003
1049.00  1.9548E+003
1049.50  1.9952E+003
1050.00  1.8968E+003
1050.50  1.6981E+003
1051.00  1.5765E+003
1051.50  1.4888E+003
1052.00  1.4560E+003
1052.50  1.4030E+003
1053.00  1.4521E+003
1053.50  1.6503E+003
1054.00  1.7754E+003
1054.50  1.8223E+003
1055.00  1.6727E+003
1055.50  1.5127E+003
1056.00  1.4508E+003
1056.50  1.4077E+003
1057.00  1.3894E+003
1057.50  1.4610E+003
1058.00  1.5808E+003
1058.50  1.6722E+003
1059.00  1.6904E+003
1059.50  1.6358E+003
1060.00  1.5650E+003
1060.50  1.5535E+003
1061.00  1.6071E+003
1061.50  1.6481E+003
1062.00  1.7385E+003
1062.50  1.8020E+003
1063.00  1.8288E+003
1063.50  1.8114E+003
1064.00  1.6641E+003
1064.50  1.5134E+003
1065.00  1.4878E+003
1065.50  1.5250E+003
1066.00  1.5876E+003
1066.50  1.5687E+003
1067.00  1.5136E+003
1067.50  1.4939E+003
1068.00  1.5423E+003
1068.50  1.6234E+003
1069.00  1.6653E+003
1069.50  1.6535E+003
1070.00  1.6496E+003
1070.50  1.5733E+003
1071.00  1.5595E+003
1071.50  1.5882E+003
1072.00  1.7031E+003
1072.50  1.3093E+003
